"Time (MJD)" "Temp./1e3 (K)" "Temp. Err." "Radius/1e15 (cm)" "Radius Err." "Log10(Bol. Lum)" "Log10(Bol. Err)"
-39.161 2.500 0.000 8.275 1.111 42.280 41.709
-38.157 2.500 0.000 8.189 1.075 42.271 41.690
-37.152 2.500 0.000 8.146 1.058 42.267 41.681
-36.148 2.500 0.000 8.122 1.006 42.264 41.658
-35.144 2.500 0.000 8.103 0.995 42.262 41.652
-34.139 2.500 0.000 8.002 0.910 42.251 41.608
-33.135 2.500 0.000 8.012 0.882 42.252 41.595
-32.130 2.500 0.000 7.949 0.849 42.245 41.575
-31.126 2.500 0.000 7.877 0.817 42.237 41.554
-30.121 2.500 0.000 7.808 0.785 42.230 41.533
-29.117 2.500 0.000 7.741 0.755 42.222 41.512
-28.112 2.500 0.000 7.677 0.725 42.215 41.491
-27.108 2.500 0.000 7.615 0.697 42.208 41.470
-26.103 2.500 0.000 7.555 0.669 42.201 41.449
-25.099 2.500 0.000 7.523 0.676 42.197 41.452
-24.094 2.500 0.000 7.459 0.642 42.190 41.426
-23.090 2.500 0.000 7.432 0.615 42.187 41.406
-22.085 2.500 0.000 7.363 0.599 42.179 41.390
-21.081 2.500 0.000 7.295 0.583 42.171 41.374
-20.076 2.500 0.000 7.261 0.557 42.167 41.353
-19.072 2.500 0.000 7.228 0.533 42.163 41.331
-18.067 2.500 0.000 7.201 0.520 42.159 41.319
-17.063 2.500 0.000 7.174 0.508 42.156 41.307
-16.059 2.500 0.000 7.147 0.496 42.153 41.295
-15.054 2.500 0.000 7.120 0.484 42.150 41.283
-14.050 2.500 0.000 7.093 0.472 42.146 41.271
-13.045 2.500 0.000 7.065 0.461 42.143 41.258
-12.041 2.500 0.000 7.038 0.450 42.139 41.246
-11.036 2.500 0.000 7.026 0.444 42.138 41.240
-10.032 2.500 0.000 7.014 0.438 42.137 41.233
-9.027 2.500 0.000 7.001 0.433 42.135 41.227
-8.023 2.500 0.000 6.989 0.427 42.133 41.220
-7.018 2.500 0.000 6.975 0.421 42.132 41.214
-6.014 2.500 0.000 6.962 0.416 42.130 41.207
-5.009 2.500 0.000 6.948 0.410 42.128 41.201
-4.005 2.500 0.000 6.934 0.405 42.127 41.194
-3.000 2.500 0.000 6.920 0.400 42.125 41.187
-1.996 2.500 0.000 6.906 0.394 42.123 41.181
-0.991 2.500 0.000 6.891 0.389 42.121 41.174
0.013 2.500 0.000 6.877 0.384 42.119 41.168
1.018 2.500 0.000 6.855 0.381 42.117 41.162
2.022 2.500 0.000 6.832 0.377 42.114 41.157
3.026 2.500 0.000 6.809 0.374 42.111 41.151
4.031 2.500 0.000 6.786 0.370 42.108 41.146
5.035 2.500 0.000 6.764 0.367 42.105 41.141
6.040 2.500 0.000 6.741 0.364 42.102 41.136
7.044 2.500 0.000 6.719 0.361 42.099 41.131
8.049 2.500 0.000 6.698 0.358 42.096 41.126
9.053 2.500 0.000 6.671 0.350 42.093 41.113
10.058 2.500 0.000 6.645 0.342 42.090 41.102
11.062 2.500 0.000 6.619 0.335 42.086 41.091
12.067 2.500 0.000 6.597 0.329 42.083 41.082
13.071 2.500 0.000 6.575 0.324 42.080 41.075
14.076 2.500 0.000 6.553 0.320 42.078 41.067
15.080 2.500 0.000 6.532 0.316 42.075 41.061
16.085 2.500 0.000 6.511 0.313 42.072 41.054
17.089 2.500 0.000 6.492 0.310 42.069 41.049
18.094 2.500 0.000 6.483 0.312 42.068 41.051
19.098 2.500 0.000 6.475 0.315 42.067 41.055
20.103 2.500 0.000 6.466 0.319 42.066 41.060
21.107 2.500 0.000 6.458 0.324 42.065 41.066
22.111 2.500 0.000 6.451 0.330 42.064 41.073
23.116 2.500 0.000 6.443 0.336 42.063 41.081
24.120 2.500 0.000 6.395 0.320 42.056 41.057
25.125 2.500 0.000 6.371 0.319 42.053 41.053
26.129 2.500 0.000 6.348 0.318 42.050 41.050
27.134 2.500 0.000 6.325 0.316 42.047 41.047
28.138 2.500 0.000 6.302 0.315 42.043 41.043
29.143 2.500 0.000 6.278 0.314 42.040 41.040
30.147 2.500 0.000 6.255 0.312 42.037 41.036
31.152 2.500 0.000 6.232 0.311 42.034 41.033
32.156 2.500 0.000 6.208 0.309 42.031 41.029
33.161 2.500 0.000 6.185 0.308 42.027 41.025
34.165 2.500 0.000 6.162 0.306 42.024 41.021
35.170 2.500 0.000 6.138 0.305 42.021 41.018
36.174 2.500 0.000 6.115 0.303 42.017 41.014
37.179 2.500 0.000 6.092 0.302 42.014 41.010
38.183 2.500 0.000 6.068 0.300 42.011 41.006
39.188 2.500 0.000 6.019 0.292 42.004 40.991
40.192 2.500 0.000 5.970 0.285 41.997 40.977
41.196 2.500 0.000 5.922 0.279 41.990 40.963
42.201 2.500 0.000 5.875 0.272 41.983 40.949
43.205 2.500 0.000 5.829 0.266 41.976 40.936
44.210 2.500 0.000 5.783 0.260 41.969 40.923
45.214 2.500 0.000 5.739 0.254 41.962 40.910
46.219 2.500 0.000 5.694 0.249 41.955 40.898
47.223 2.500 0.000 5.651 0.244 41.949 40.886
48.228 2.500 0.000 5.591 0.236 41.940 40.866
49.232 2.500 0.000 5.532 0.228 41.930 40.847
50.237 2.500 0.000 5.474 0.222 41.921 40.830
51.241 2.500 0.000 5.416 0.216 41.912 40.814
52.246 2.500 0.000 5.360 0.212 41.903 40.800
53.250 2.500 0.000 5.305 0.208 41.894 40.788
54.255 2.500 0.000 5.249 0.205 41.885 40.778
55.259 2.500 0.000 5.143 0.198 41.867 40.754
56.264 2.500 0.000 5.040 0.191 41.849 40.730
57.268 2.500 0.000 4.938 0.185 41.832 40.706
58.273 2.500 0.000 4.839 0.179 41.814 40.683
59.277 2.500 0.000 4.742 0.173 41.796 40.661
60.281 2.500 0.000 4.646 0.168 41.779 40.639
61.286 2.500 0.000 4.553 0.163 41.761 40.617
62.290 2.500 0.000 4.461 0.159 41.743 40.596
63.295 2.500 0.000 4.371 0.155 41.726 40.575
64.299 2.500 0.000 4.283 0.151 41.708 40.555
65.304 2.500 0.000 4.197 0.147 41.690 40.536
66.308 2.500 0.000 4.112 0.144 41.673 40.517
67.313 2.500 0.000 4.029 0.141 41.655 40.499
68.317 2.500 0.000 3.954 0.093 41.639 40.313
69.322 2.500 0.000 3.826 0.096 41.610 40.312
70.326 2.500 0.000 3.702 0.099 41.582 40.310
71.331 2.500 0.000 3.583 0.102 41.553 40.309
72.335 2.500 0.000 3.467 0.105 41.524 40.306
73.340 2.500 0.000 3.266 0.079 41.473 40.156
74.344 2.500 0.000 3.141 0.113 41.439 40.295
75.349 2.500 0.000 3.040 0.115 41.410 40.289
76.353 2.500 0.000 2.941 0.117 41.382 40.283
77.357 2.500 0.000 2.837 0.116 41.350 40.262
78.362 2.500 0.000 2.821 0.113 41.345 40.250
79.366 2.500 0.000 2.804 0.111 41.340 40.238
80.371 2.500 0.000 2.788 0.108 41.335 40.225
81.375 2.500 0.000 2.772 0.106 41.330 40.213
82.380 2.500 0.000 2.756 0.104 41.325 40.201
83.384 2.500 0.000 2.740 0.101 41.320 40.188
84.389 2.500 0.000 2.724 0.099 41.315 40.176
85.393 2.500 0.000 2.708 0.097 41.310 40.163
86.398 2.500 0.000 2.692 0.094 41.305 40.150
87.402 2.500 0.000 2.676 0.092 41.300 40.137
88.407 2.500 0.000 2.661 0.090 41.295 40.123
89.411 2.500 0.000 2.645 0.087 41.290 40.110
90.416 2.500 0.000 2.630 0.085 41.285 40.096
91.420 2.500 0.000 2.615 0.083 41.279 40.082
92.425 2.500 0.000 2.600 0.081 41.274 40.068
93.429 2.500 0.000 2.585 0.079 41.269 40.053
94.434 2.500 0.000 2.570 0.076 41.264 40.039
95.438 2.500 0.000 2.555 0.074 41.259 40.024
96.442 2.500 0.000 2.540 0.072 41.254 40.008
97.447 2.500 0.000 2.526 0.070 41.249 39.993
98.451 2.500 0.000 2.511 0.068 41.244 39.977
99.456 2.500 0.000 2.497 0.066 41.239 39.961
100.460 2.500 0.000 2.482 0.064 41.234 39.944
101.465 2.500 0.000 2.468 0.062 41.229 39.927
102.469 2.500 0.000 2.454 0.059 41.224 39.910
103.474 2.500 0.000 2.440 0.057 41.219 39.892
104.478 2.500 0.000 2.426 0.055 41.214 39.874
105.483 2.500 0.000 2.412 0.053 41.209 39.856
106.487 2.500 0.000 2.398 0.051 41.204 39.837
107.492 2.500 0.000 2.384 0.049 41.199 39.817
108.496 2.500 0.000 2.370 0.048 41.194 39.797
109.501 2.500 0.000 2.357 0.046 41.189 39.777
110.505 2.500 0.000 2.343 0.044 41.184 39.756
111.510 2.500 0.000 2.330 0.042 41.179 39.734
112.514 2.500 0.000 2.316 0.040 41.174 39.712
113.519 2.500 0.000 2.303 0.038 41.169 39.689
114.523 2.500 0.000 2.290 0.036 41.164 39.665
115.527 2.500 0.000 2.277 0.034 41.159 39.641
116.532 2.500 0.000 2.264 0.033 41.154 39.615
117.536 2.500 0.000 2.251 0.031 41.149 39.589
118.541 2.500 0.000 2.238 0.029 41.144 39.562
119.545 2.500 0.000 2.225 0.028 41.139 39.534
120.550 2.500 0.000 2.212 0.026 41.134 39.504
121.554 2.500 0.000 2.199 0.024 41.129 39.474
122.559 2.500 0.000 2.186 0.023 41.124 39.442
123.563 2.500 0.000 2.173 0.021 41.119 39.409
124.568 2.500 0.000 2.161 0.020 41.114 39.374
125.572 2.500 0.000 2.148 0.018 41.109 39.337
126.577 2.500 0.000 2.136 0.017 41.104 39.298
127.581 2.500 0.000 2.123 0.015 41.099 39.258
128.586 2.500 0.000 2.111 0.014 41.094 39.215
129.590 2.500 0.000 2.099 0.013 41.088 39.169
130.595 2.500 0.000 2.086 0.011 41.083 39.122
131.599 2.500 0.000 2.074 0.010 41.078 39.072
132.604 2.500 0.000 2.062 0.009 41.073 39.019
133.608 2.500 0.000 2.050 0.008 41.068 38.966
134.612 2.500 0.000 2.037 0.007 41.063 38.913
135.617 2.500 0.000 2.025 0.006 41.058 38.864
136.621 2.500 0.000 2.013 0.006 41.052 38.823
137.626 2.500 0.000 2.001 0.006 41.047 38.796
138.630 2.500 0.000 1.990 0.006 41.042 38.787
139.635 2.500 0.000 1.978 0.006 41.037 38.795
140.639 2.500 0.000 1.966 0.006 41.032 38.818
141.644 2.500 0.000 1.954 0.006 41.026 38.849
142.648 2.500 0.000 1.942 0.007 41.021 38.884
143.653 2.500 0.000 1.931 0.008 41.016 38.919
144.657 2.500 0.000 1.919 0.008 41.011 38.953
145.662 2.500 0.000 1.907 0.009 41.005 38.986
146.666 2.500 0.000 1.896 0.010 41.000 39.016
147.671 2.500 0.000 1.884 0.011 40.995 39.043
148.675 2.500 0.000 1.873 0.011 40.990 39.068
149.680 2.500 0.000 1.862 0.012 40.984 39.091
150.684 2.500 0.000 1.850 0.013 40.979 39.111
151.689 2.500 0.000 1.839 0.013 40.974 39.130
152.693 2.500 0.000 1.828 0.014 40.968 39.147
153.697 2.500 0.000 1.816 0.014 40.963 39.162
154.702 2.500 0.000 1.805 0.015 40.958 39.176
155.706 2.500 0.000 1.794 0.015 40.952 39.189
156.711 2.500 0.000 1.783 0.016 40.947 39.200
157.715 2.500 0.000 1.772 0.016 40.942 39.210
158.720 2.500 0.000 1.761 0.017 40.936 39.219
159.724 2.500 0.000 1.750 0.017 40.931 39.228
160.729 2.500 0.000 1.740 0.018 40.925 39.235
161.733 2.500 0.000 1.729 0.018 40.920 39.242
162.738 2.500 0.000 1.718 0.019 40.915 39.249
163.742 2.500 0.000 1.707 0.019 40.909 39.255
164.747 2.500 0.000 1.697 0.019 40.904 39.260
165.751 2.500 0.000 1.686 0.020 40.899 39.265
166.756 2.500 0.000 1.676 0.020 40.893 39.270
167.760 2.500 0.000 1.630 0.031 40.869 39.449
168.765 2.500 0.000 1.626 0.029 40.867 39.419
169.769 2.500 0.000 1.622 0.027 40.865 39.390
170.774 2.500 0.000 1.618 0.026 40.863 39.362
171.778 2.500 0.000 1.615 0.024 40.861 39.337
172.782 2.500 0.000 1.611 0.023 40.859 39.315
173.787 2.500 0.000 1.606 0.022 40.856 39.295
174.791 2.500 0.000 1.601 0.021 40.854 39.274
175.796 2.500 0.000 1.596 0.020 40.851 39.253
176.800 2.500 0.000 1.591 0.019 40.848 39.231
177.805 2.500 0.000 1.586 0.018 40.845 39.210
178.809 2.500 0.000 1.581 0.018 40.842 39.188
179.814 2.500 0.000 1.576 0.017 40.840 39.165
180.818 2.500 0.000 1.571 0.016 40.837 39.142
181.823 2.500 0.000 1.566 0.015 40.834 39.118
182.827 2.500 0.000 1.561 0.014 40.831 39.093
183.832 2.500 0.000 1.556 0.013 40.829 39.067
184.836 2.500 0.000 1.551 0.013 40.826 39.039
185.841 2.500 0.000 1.546 0.012 40.823 39.010
