"Time (MJD)" "Temp./1e3 (K)" "Temp. Err." "Radius/1e15 (cm)" "Radius Err." "Log10(Bol. Lum)" "Log10(Bol. Err)"
-4.128 20.243 1.942 0.521 0.045 43.511 42.836
-3.120 19.295 1.719 0.576 0.048 43.515 42.797
-2.113 25.274 2.149 0.415 0.029 43.700 43.007
-1.105 26.886 2.369 0.428 0.030 43.835 43.164
-0.097 22.121 1.155 0.547 0.024 43.708 42.788
0.911 16.763 0.576 0.727 0.025 43.474 42.320
1.918 14.360 0.383 0.872 0.025 43.362 42.056
2.926 14.264 0.371 0.879 0.025 43.358 42.038
3.934 14.579 0.385 0.856 0.024 43.373 42.067
4.941 14.928 0.401 0.833 0.024 43.390 42.098
5.949 15.276 0.418 0.810 0.023 43.406 42.130
6.957 15.057 0.400 0.818 0.023 43.389 42.095
7.965 14.817 0.381 0.827 0.023 43.371 42.058
8.972 14.565 0.363 0.836 0.022 43.351 42.019
9.980 14.368 0.349 0.842 0.022 43.333 41.987
10.988 13.935 0.323 0.862 0.022 43.300 41.924
11.995 11.920 0.224 1.005 0.023 43.162 41.633
13.003 10.454 0.164 1.155 0.025 43.055 41.379
14.011 9.760 0.129 1.225 0.023 42.987 41.204
15.018 9.738 0.128 1.210 0.023 42.972 41.186
16.026 9.627 0.123 1.208 0.022 42.951 41.148
17.034 9.473 0.116 1.221 0.022 42.932 41.103
18.042 9.265 0.110 1.247 0.022 42.912 41.055
19.049 9.082 0.105 1.270 0.022 42.893 41.011
20.057 8.907 0.100 1.293 0.022 42.875 40.970
21.065 8.741 0.096 1.316 0.022 42.858 40.929
22.072 8.585 0.092 1.339 0.022 42.841 40.892
23.080 8.436 0.088 1.361 0.023 42.825 40.855
24.088 8.298 0.085 1.382 0.023 42.810 40.821
25.096 8.300 0.085 1.366 0.022 42.800 40.816
26.103 8.297 0.086 1.351 0.022 42.789 40.810
27.111 8.267 0.085 1.341 0.022 42.777 40.798
28.119 8.266 0.086 1.326 0.022 42.767 40.793
29.126 8.244 0.085 1.317 0.022 42.756 40.784
30.134 8.091 0.083 1.347 0.022 42.743 40.753
31.142 7.944 0.080 1.377 0.022 42.731 40.723
32.150 7.802 0.078 1.408 0.023 42.719 40.694
33.157 7.664 0.075 1.440 0.024 42.707 40.665
34.165 7.546 0.074 1.469 0.024 42.698 40.642
35.173 7.530 0.074 1.466 0.024 42.692 40.641
36.180 7.507 0.074 1.466 0.024 42.687 40.638
37.188 7.459 0.074 1.472 0.025 42.679 40.629
38.196 7.389 0.073 1.485 0.025 42.671 40.615
39.203 7.371 0.074 1.478 0.025 42.662 40.610
40.211 7.540 0.078 1.397 0.024 42.653 40.637
41.219 7.681 0.082 1.331 0.023 42.643 40.660
42.227 7.532 0.079 1.363 0.024 42.629 40.627
43.234 7.398 0.077 1.393 0.024 42.617 40.598
44.242 7.298 0.076 1.413 0.025 42.606 40.575
45.250 7.181 0.074 1.440 0.025 42.594 40.550
46.257 7.062 0.072 1.470 0.026 42.583 40.524
47.265 6.914 0.070 1.511 0.027 42.570 40.494
48.273 6.827 0.069 1.529 0.028 42.559 40.474
49.281 6.697 0.068 1.568 0.029 42.547 40.448
50.288 6.616 0.067 1.587 0.029 42.536 40.431
51.296 6.524 0.066 1.612 0.030 42.526 40.414
52.304 6.439 0.065 1.637 0.031 42.516 40.399
53.311 6.358 0.065 1.661 0.032 42.507 40.386
54.319 6.279 0.064 1.685 0.033 42.498 40.375
55.327 6.204 0.063 1.709 0.034 42.489 40.365
56.335 6.135 0.063 1.731 0.035 42.481 40.357
57.342 6.147 0.065 1.714 0.035 42.476 40.360
58.350 6.176 0.067 1.688 0.035 42.471 40.364
59.358 6.209 0.069 1.661 0.035 42.466 40.369
60.365 6.242 0.071 1.634 0.035 42.461 40.375
61.373 6.245 0.072 1.622 0.036 42.455 40.377
62.381 6.261 0.074 1.607 0.036 42.451 40.382
63.389 6.311 0.076 1.567 0.036 42.443 40.387
64.396 6.462 0.081 1.451 0.034 42.418 40.392
65.404 6.643 0.087 1.330 0.031 42.390 40.404
66.412 6.862 0.095 1.208 0.029 42.363 40.425
67.419 7.146 0.106 1.082 0.027 42.337 40.462
68.427 7.202 0.110 1.037 0.027 42.314 40.459
69.435 6.543 0.092 1.240 0.032 42.303 40.336
70.442 6.033 0.078 1.466 0.037 42.307 40.280
71.450 5.705 0.070 1.669 0.042 42.323 40.290
72.458 5.450 0.065 1.854 0.047 42.335 40.322
73.466 5.417 0.065 1.867 0.048 42.330 40.329
74.473 5.385 0.065 1.876 0.049 42.324 40.333
75.481 5.384 0.065 1.853 0.049 42.313 40.328
76.489 5.386 0.066 1.826 0.049 42.301 40.322
77.496 5.420 0.068 1.775 0.048 42.287 40.311
78.504 5.552 0.075 1.655 0.047 42.268 40.290
79.512 5.547 0.076 1.649 0.047 42.264 40.293
80.520 5.633 0.079 1.567 0.046 42.246 40.277
81.527 5.447 0.086 1.673 0.057 42.245 40.337
82.535 5.508 0.089 1.611 0.056 42.231 40.322
83.543 5.559 0.091 1.556 0.055 42.217 40.308
84.550 5.572 0.093 1.521 0.055 42.201 40.298
85.558 5.584 0.095 1.489 0.054 42.186 40.289
86.566 5.610 0.098 1.439 0.054 42.165 40.271
87.574 5.632 0.101 1.403 0.053 42.150 40.261
88.581 5.650 0.103 1.372 0.053 42.136 40.252
89.589 5.303 0.105 1.529 0.066 42.119 40.290
90.597 5.313 0.107 1.494 0.065 42.103 40.279
91.604 5.321 0.109 1.462 0.065 42.086 40.269
92.612 5.109 0.031 1.656 0.000 42.124 40.515
93.620 5.070 0.031 1.656 0.000 42.111 40.505
94.628 5.032 0.031 1.656 0.000 42.098 40.496
95.635 5.003 0.032 1.656 0.000 42.088 40.492
96.643 4.975 0.032 1.656 0.000 42.078 40.487
97.651 4.948 0.032 1.656 0.000 42.069 40.483
98.658 4.921 0.032 1.656 0.000 42.059 40.478
99.666 4.894 0.033 1.656 0.000 42.049 40.474
100.674 4.867 0.033 1.656 0.000 42.040 40.470
101.681 4.841 0.033 1.656 0.000 42.030 40.465
102.689 4.814 0.033 1.656 0.000 42.021 40.461
103.697 4.789 0.033 1.656 0.000 42.012 40.457
104.705 4.763 0.034 1.656 0.000 42.002 40.453
105.712 4.738 0.034 1.656 0.000 41.993 40.449
106.720 4.713 0.034 1.656 0.000 41.984 40.445
107.728 4.688 0.034 1.656 0.000 41.975 40.441
108.735 4.663 0.034 1.656 0.000 41.966 40.436
109.743 4.639 0.035 1.656 0.000 41.957 40.432
110.751 4.615 0.035 1.656 0.000 41.948 40.428
111.759 4.591 0.035 1.656 0.000 41.939 40.424
112.766 4.568 0.035 1.656 0.000 41.930 40.420
113.774 4.544 0.036 1.656 0.000 41.921 40.416
114.782 4.521 0.036 1.656 0.000 41.912 40.412
115.789 4.498 0.036 1.656 0.000 41.903 40.408
116.797 4.476 0.036 1.656 0.000 41.894 40.404
117.805 4.453 0.036 1.656 0.000 41.886 40.400
118.813 4.431 0.037 1.656 0.000 41.877 40.396
119.820 4.409 0.037 1.656 0.000 41.868 40.393
120.828 4.387 0.037 1.656 0.000 41.860 40.389
121.836 4.366 0.037 1.656 0.000 41.851 40.385
122.843 4.344 0.037 1.656 0.000 41.843 40.381
123.851 4.323 0.038 1.656 0.000 41.834 40.377
124.859 4.302 0.038 1.656 0.000 41.826 40.373
125.866 4.282 0.038 1.656 0.000 41.817 40.369
126.874 4.261 0.038 1.656 0.000 41.809 40.365
127.882 4.241 0.038 1.656 0.000 41.801 40.361
128.890 4.221 0.039 1.656 0.000 41.792 40.357
129.897 4.201 0.039 1.656 0.000 41.784 40.353
130.905 4.181 0.039 1.656 0.000 41.776 40.349
131.913 4.161 0.039 1.656 0.000 41.768 40.345
132.920 4.142 0.039 1.656 0.000 41.760 40.341
133.928 4.123 0.040 1.656 0.000 41.752 40.337
134.936 4.104 0.040 1.656 0.000 41.744 40.333
135.944 4.085 0.040 1.656 0.000 41.736 40.329
136.951 4.066 0.040 1.656 0.000 41.728 40.325
137.959 4.047 0.040 1.656 0.000 41.720 40.321
