"Time (MJD)" "Temp./1e3 (K)" "Temp. Err." "Radius/1e15 (cm)" "Radius Err." "Log10(Bol. Lum)" "Log10(Bol. Err)"
-6.065 17.030 1.419 0.362 0.031 42.895 42.112
-5.056 14.647 0.790 0.436 0.025 42.794 41.804
-4.047 13.792 0.680 0.476 0.026 42.767 41.718
-3.038 13.249 0.610 0.516 0.027 42.767 41.675
-2.029 11.987 0.480 0.587 0.029 42.705 41.512
-1.021 11.443 0.430 0.628 0.030 42.683 41.441
-0.012 10.793 0.363 0.687 0.030 42.660 41.347
0.997 10.275 0.324 0.737 0.031 42.635 41.267
2.006 9.907 0.299 0.779 0.033 42.620 41.208
3.015 10.118 0.316 0.759 0.032 42.634 41.251
4.024 9.860 0.299 0.792 0.034 42.626 41.213
5.033 9.321 0.264 0.849 0.035 42.589 41.105
6.042 8.625 0.221 0.954 0.038 42.555 40.962
7.051 8.237 0.196 1.025 0.039 42.537 40.868
8.059 8.265 0.197 1.009 0.039 42.529 40.864
9.068 8.339 0.200 0.981 0.038 42.521 40.869
10.077 7.708 0.164 1.132 0.041 42.508 40.722
11.086 8.099 0.184 1.030 0.038 42.513 40.809
12.095 7.942 0.176 1.039 0.038 42.486 40.750
13.104 8.154 0.186 0.987 0.037 42.487 40.794
14.113 8.372 0.198 0.938 0.035 42.488 40.837
15.122 8.506 0.205 0.907 0.034 42.487 40.861
16.131 8.127 0.183 0.974 0.036 42.470 40.771
17.140 7.532 0.152 1.098 0.038 42.441 40.615
18.148 7.035 0.128 1.228 0.041 42.421 40.487
19.157 6.598 0.110 1.373 0.045 42.406 40.406
20.166 6.332 0.100 1.474 0.047 42.396 40.384
21.175 6.442 0.104 1.427 0.046 42.398 40.387
22.184 6.507 0.107 1.399 0.045 42.398 40.390
23.193 6.411 0.103 1.425 0.046 42.388 40.375
24.202 6.324 0.101 1.449 0.047 42.379 40.363
25.211 6.318 0.101 1.442 0.046 42.373 40.357
26.220 6.308 0.101 1.435 0.046 42.366 40.350
27.228 6.286 0.101 1.434 0.046 42.359 40.342
28.237 6.206 0.098 1.458 0.047 42.352 40.335
29.246 6.181 0.098 1.464 0.047 42.348 40.332
30.255 6.145 0.097 1.475 0.048 42.344 40.329
31.264 6.089 0.095 1.497 0.048 42.341 40.328
32.273 6.031 0.094 1.521 0.049 42.338 40.329
33.282 5.970 0.093 1.547 0.050 42.336 40.331
34.291 5.898 0.091 1.577 0.051 42.332 40.334
35.300 5.783 0.087 1.632 0.053 42.327 40.344
36.308 5.600 0.081 1.753 0.056 42.333 40.380
37.317 5.448 0.076 1.867 0.059 42.340 40.414
38.326 5.354 0.073 1.947 0.061 42.346 40.437
39.335 5.267 0.070 2.027 0.063 42.353 40.461
40.344 5.198 0.069 2.100 0.066 42.361 40.482
41.353 5.156 0.069 2.138 0.068 42.362 40.493
42.362 5.139 0.069 2.146 0.069 42.359 40.495
43.371 5.158 0.069 2.127 0.068 42.358 40.487
44.380 5.182 0.069 2.104 0.067 42.357 40.478
45.389 5.208 0.070 2.076 0.065 42.354 40.468
46.397 5.254 0.072 2.018 0.064 42.345 40.450
47.406 5.289 0.073 1.976 0.063 42.338 40.436
48.415 5.318 0.075 1.942 0.062 42.332 40.424
49.424 5.305 0.075 1.950 0.063 42.332 40.427
50.433 5.293 0.075 1.958 0.063 42.331 40.429
51.442 5.274 0.075 1.970 0.064 42.330 40.433
52.451 5.265 0.075 1.973 0.065 42.329 40.434
53.460 5.256 0.076 1.976 0.066 42.327 40.435
54.469 5.251 0.076 1.978 0.066 42.326 40.436
55.477 5.263 0.077 1.968 0.066 42.326 40.435
56.486 5.274 0.078 1.959 0.067 42.326 40.434
57.495 5.276 0.079 1.956 0.067 42.325 40.434
58.504 5.248 0.079 1.970 0.068 42.321 40.439
59.513 5.191 0.078 2.010 0.070 42.320 40.453
60.522 5.129 0.077 2.057 0.072 42.320 40.467
61.531 5.088 0.076 2.091 0.074 42.320 40.478
62.540 5.055 0.076 2.119 0.075 42.320 40.488
63.549 5.012 0.075 2.160 0.077 42.322 40.501
64.557 4.972 0.075 2.198 0.079 42.323 40.515
65.566 4.936 0.074 2.232 0.081 42.324 40.526
66.575 4.901 0.074 2.262 0.083 42.323 40.537
67.584 4.866 0.074 2.293 0.085 42.322 40.549
68.593 4.832 0.074 2.322 0.088 42.321 40.560
69.602 4.805 0.074 2.343 0.090 42.319 40.568
70.611 4.820 0.075 2.312 0.089 42.313 40.560
71.620 4.841 0.076 2.276 0.088 42.307 40.550
72.629 4.861 0.077 2.240 0.087 42.300 40.541
73.638 4.881 0.078 2.202 0.086 42.293 40.531
74.646 4.902 0.079 2.164 0.085 42.285 40.521
75.655 4.905 0.080 2.148 0.085 42.279 40.518
76.664 4.855 0.080 2.194 0.088 42.280 40.536
77.673 4.801 0.079 2.249 0.092 42.282 40.556
78.682 4.750 0.079 2.295 0.096 42.281 40.574
79.691 4.733 0.081 2.295 0.098 42.275 40.578
80.700 5.088 0.118 1.911 0.101 42.242 40.480
81.709 5.177 0.123 1.806 0.096 42.223 40.438
82.718 5.084 0.119 1.861 0.099 42.217 40.462
83.726 5.002 0.118 1.896 0.104 42.205 40.532
84.735 4.920 0.115 1.945 0.107 42.199 40.549
85.744 4.840 0.112 1.995 0.111 42.192 40.566
86.753 4.763 0.110 2.047 0.115 42.187 40.583
87.762 4.679 0.106 2.108 0.119 42.181 40.601
88.771 4.571 0.102 2.195 0.124 42.176 40.623
89.780 4.935 0.222 1.830 0.184 42.151 40.581
90.789 5.055 0.239 1.701 0.176 42.129 40.527
91.798 4.909 0.226 1.780 0.185 42.118 40.579
92.806 4.793 0.217 1.843 0.192 42.106 40.618
93.815 4.746 0.035 1.843 0.000 42.089 40.555
94.824 4.700 0.034 1.843 0.000 42.072 40.539
95.833 4.654 0.034 1.843 0.000 42.055 40.522
96.842 4.609 0.034 1.843 0.000 42.038 40.506
97.851 4.565 0.034 1.843 0.000 42.022 40.490
98.860 4.522 0.033 1.843 0.000 42.005 40.475
99.869 4.480 0.033 1.843 0.000 41.989 40.459
100.878 4.438 0.033 1.843 0.000 41.972 40.444
101.887 4.397 0.033 1.843 0.000 41.956 40.429
102.895 4.357 0.032 1.843 0.000 41.940 40.414
103.904 4.317 0.032 1.843 0.000 41.925 40.399
104.913 4.279 0.032 1.843 0.000 41.909 40.384
105.922 4.240 0.032 1.843 0.000 41.893 40.369
106.931 4.203 0.032 1.843 0.000 41.878 40.355
107.940 4.166 0.031 1.843 0.000 41.863 40.341
108.949 4.130 0.031 1.843 0.000 41.848 40.327
109.958 4.094 0.031 1.843 0.000 41.832 40.313
110.967 4.059 0.031 1.843 0.000 41.818 40.299
111.975 4.025 0.031 1.843 0.000 41.803 40.285
112.984 3.991 0.030 1.843 0.000 41.788 40.271
113.993 3.958 0.030 1.843 0.000 41.774 40.258
115.002 3.925 0.030 1.843 0.000 41.759 40.244
116.011 3.893 0.030 1.843 0.000 41.745 40.231
