"Time (MJD)" PAN-STARRS/PS1.g PAN-STARRS/PS1.g_err PAN-STARRS/PS1.i PAN-STARRS/PS1.i_err PAN-STARRS/PS1.r PAN-STARRS/PS1.r_err Palomar/ZTF.g Palomar/ZTF.g_err Palomar/ZTF.r Palomar/ZTF.r_err "Temp./1e3 (K)" "Temp. Err." "Radius/1e15 (cm)" "Radius Err." "Log10(Bol. Lum)" "Log10(Bol. Err)"
-7.000 -17.489 -0.041 -17.483 -0.039 -17.295 -0.050 -17.260 -0.051 -17.024 -0.089 13.855 0.911 0.482 0.036 42.786 42.267
-6.000 -17.513 -0.036 -17.508 -0.034 -17.337 -0.045 -17.304 -0.045 -17.072 -0.084 13.267 0.707 0.515 0.032 42.767 42.161
-5.000 -17.534 -0.032 -17.530 -0.031 -17.376 -0.040 -17.344 -0.040 -17.117 -0.078 12.750 0.607 0.547 0.032 42.751 42.100
-4.000 -17.551 -0.029 -17.548 -0.028 -17.412 -0.036 -17.381 -0.036 -17.159 -0.074 12.295 0.501 0.579 0.029 42.737 42.019
-3.000 -17.565 -0.027 -17.563 -0.026 -17.444 -0.033 -17.416 -0.033 -17.199 -0.071 11.818 0.454 0.615 0.031 42.720 41.983
-2.000 -17.575 -0.026 -17.575 -0.025 -17.474 -0.031 -17.447 -0.030 -17.237 -0.068 11.442 0.361 0.647 0.027 42.709 41.886
-1.000 -17.581 -0.025 -17.583 -0.024 -17.500 -0.029 -17.475 -0.029 -17.272 -0.065 11.023 0.354 0.685 0.029 42.693 41.882
-0.000 -17.585 -0.025 -17.587 -0.024 -17.523 -0.028 -17.500 -0.027 -17.304 -0.063 10.686 0.290 0.718 0.027 42.681 41.799
1.000 -17.585 -0.025 -17.589 -0.024 -17.543 -0.027 -17.522 -0.027 -17.333 -0.062 10.341 0.269 0.756 0.028 42.668 41.772
2.000 -17.581 -0.026 -17.587 -0.024 -17.560 -0.027 -17.541 -0.026 -17.360 -0.060 10.036 0.247 0.791 0.028 42.655 41.737
3.000 -17.575 -0.026 -17.582 -0.025 -17.574 -0.026 -17.557 -0.026 -17.384 -0.060 9.730 0.232 0.829 0.029 42.642 41.716
4.000 -17.566 -0.026 -17.574 -0.025 -17.585 -0.026 -17.570 -0.026 -17.406 -0.059 9.467 0.223 0.864 0.031 42.631 41.702
5.000 -17.553 -0.027 -17.563 -0.026 -17.593 -0.026 -17.580 -0.026 -17.425 -0.058 9.197 0.210 0.902 0.031 42.618 41.678
6.000 -17.538 -0.027 -17.549 -0.026 -17.598 -0.026 -17.588 -0.026 -17.442 -0.057 8.950 0.196 0.939 0.032 42.606 41.650
7.000 -17.521 -0.028 -17.533 -0.026 -17.601 -0.026 -17.593 -0.026 -17.457 -0.057 8.723 0.203 0.976 0.036 42.594 41.669
8.000 -17.501 -0.028 -17.515 -0.027 -17.602 -0.026 -17.596 -0.026 -17.469 -0.057 8.512 0.198 1.011 0.038 42.583 41.660
9.000 -17.479 -0.029 -17.494 -0.027 -17.600 -0.026 -17.596 -0.026 -17.479 -0.056 8.296 0.167 1.050 0.035 42.571 41.592
10.000 -17.456 -0.029 -17.472 -0.028 -17.597 -0.026 -17.595 -0.026 -17.488 -0.056 8.098 0.161 1.087 0.036 42.559 41.574
11.000 -17.430 -0.030 -17.447 -0.028 -17.592 -0.026 -17.592 -0.026 -17.494 -0.055 7.925 0.161 1.121 0.039 42.548 41.577
12.000 -17.403 -0.030 -17.422 -0.029 -17.585 -0.026 -17.588 -0.026 -17.500 -0.055 7.745 0.165 1.159 0.043 42.537 41.591
13.000 -17.375 -0.031 -17.395 -0.029 -17.577 -0.026 -17.582 -0.026 -17.503 -0.055 7.586 0.165 1.194 0.045 42.527 41.590
14.000 -17.346 -0.032 -17.367 -0.030 -17.567 -0.026 -17.574 -0.026 -17.505 -0.054 7.411 0.136 1.235 0.041 42.516 41.511
15.000 -17.316 -0.032 -17.338 -0.031 -17.557 -0.026 -17.566 -0.026 -17.506 -0.054 7.276 0.152 1.267 0.048 42.506 41.558
16.000 -17.285 -0.033 -17.308 -0.031 -17.545 -0.027 -17.556 -0.027 -17.506 -0.054 7.138 0.145 1.301 0.049 42.496 41.541
17.000 -17.253 -0.034 -17.278 -0.032 -17.533 -0.027 -17.546 -0.027 -17.505 -0.053 7.000 0.130 1.339 0.047 42.487 41.494
18.000 -17.222 -0.034 -17.247 -0.032 -17.520 -0.027 -17.535 -0.027 -17.502 -0.053 6.881 0.138 1.370 0.052 42.477 41.520
19.000 -17.189 -0.035 -17.216 -0.033 -17.506 -0.027 -17.523 -0.027 -17.499 -0.052 6.750 0.116 1.409 0.047 42.468 41.451
20.000 -17.157 -0.036 -17.185 -0.034 -17.492 -0.027 -17.511 -0.027 -17.495 -0.052 6.652 0.126 1.437 0.053 42.459 41.485
21.000 -17.125 -0.036 -17.154 -0.034 -17.478 -0.027 -17.499 -0.027 -17.491 -0.051 6.539 0.111 1.473 0.050 42.451 41.434
22.000 -17.093 -0.037 -17.123 -0.035 -17.463 -0.027 -17.486 -0.027 -17.486 -0.051 6.432 0.110 1.509 0.052 42.443 41.431
23.000 -17.062 -0.037 -17.093 -0.035 -17.449 -0.027 -17.473 -0.027 -17.480 -0.050 6.350 0.118 1.535 0.058 42.436 41.462
24.000 -17.031 -0.038 -17.063 -0.035 -17.435 -0.027 -17.461 -0.027 -17.475 -0.050 6.263 0.116 1.566 0.059 42.429 41.455
25.000 -17.001 -0.038 -17.034 -0.036 -17.421 -0.027 -17.449 -0.027 -17.469 -0.049 6.185 0.116 1.593 0.061 42.423 41.455
26.000 -16.971 -0.039 -17.006 -0.036 -17.408 -0.027 -17.437 -0.027 -17.463 -0.049 6.104 0.109 1.625 0.061 42.417 41.433
27.000 -16.943 -0.039 -16.978 -0.036 -17.395 -0.027 -17.426 -0.027 -17.457 -0.048 6.036 0.107 1.650 0.061 42.411 41.424
28.000 -16.915 -0.039 -16.952 -0.037 -17.383 -0.027 -17.415 -0.027 -17.451 -0.047 5.957 0.096 1.685 0.058 42.406 41.382
29.000 -16.889 -0.040 -16.927 -0.037 -17.371 -0.026 -17.405 -0.026 -17.445 -0.046 5.900 0.099 1.707 0.062 42.401 41.397
30.000 -16.864 -0.040 -16.903 -0.037 -17.360 -0.026 -17.396 -0.026 -17.440 -0.046 5.842 0.102 1.733 0.065 42.397 41.409
31.000 -16.840 -0.041 -16.880 -0.038 -17.351 -0.026 -17.387 -0.026 -17.435 -0.045 5.789 0.101 1.756 0.066 42.392 41.403
32.000 -16.817 -0.041 -16.858 -0.038 -17.342 -0.026 -17.379 -0.026 -17.430 -0.044 5.737 0.097 1.781 0.066 42.389 41.388
33.000 -16.796 -0.041 -16.838 -0.038 -17.333 -0.026 -17.372 -0.026 -17.425 -0.043 5.678 0.085 1.812 0.060 42.386 41.337
34.000 -16.776 -0.042 -16.819 -0.039 -17.326 -0.026 -17.366 -0.026 -17.421 -0.043 5.637 0.082 1.834 0.060 42.384 41.325
35.000 -16.758 -0.042 -16.801 -0.039 -17.320 -0.026 -17.360 -0.026 -17.418 -0.042 5.609 0.094 1.846 0.069 42.381 41.382
36.000 -16.741 -0.043 -16.785 -0.040 -17.314 -0.026 -17.356 -0.026 -17.414 -0.041 5.565 0.090 1.871 0.068 42.379 41.368
37.000 -16.725 -0.044 -16.770 -0.041 -17.310 -0.026 -17.352 -0.026 -17.412 -0.041 5.530 0.092 1.892 0.070 42.378 41.377
38.000 -16.710 -0.044 -16.756 -0.041 -17.306 -0.026 -17.349 -0.026 -17.409 -0.040 5.495 0.080 1.915 0.064 42.377 41.324
39.000 -16.697 -0.045 -16.744 -0.042 -17.304 -0.026 -17.347 -0.026 -17.408 -0.040 5.471 0.090 1.927 0.071 42.375 41.370
40.000 -16.685 -0.046 -16.732 -0.043 -17.302 -0.026 -17.346 -0.026 -17.406 -0.040 5.432 0.081 1.956 0.066 42.375 41.329
41.000 -16.674 -0.047 -16.722 -0.043 -17.301 -0.026 -17.346 -0.026 -17.405 -0.040 5.421 0.089 1.962 0.073 42.375 41.372
42.000 -16.664 -0.047 -16.713 -0.044 -17.300 -0.027 -17.346 -0.026 -17.404 -0.040 5.396 0.090 1.980 0.074 42.374 41.374
43.000 -16.655 -0.048 -16.705 -0.045 -17.300 -0.027 -17.346 -0.026 -17.404 -0.040 5.375 0.093 1.995 0.079 42.375 41.395
44.000 -16.647 -0.049 -16.697 -0.046 -17.301 -0.027 -17.347 -0.027 -17.404 -0.040 5.351 0.091 2.015 0.078 42.375 41.388
45.000 -16.640 -0.050 -16.691 -0.047 -17.302 -0.027 -17.349 -0.027 -17.404 -0.041 5.332 0.091 2.031 0.079 42.376 41.392
46.000 -16.633 -0.051 -16.685 -0.048 -17.303 -0.027 -17.351 -0.027 -17.405 -0.041 5.312 0.091 2.047 0.080 42.376 41.394
47.000 -16.627 -0.052 -16.680 -0.049 -17.305 -0.028 -17.353 -0.027 -17.405 -0.042 5.295 0.092 2.064 0.082 42.378 41.401
48.000 -16.621 -0.053 -16.675 -0.049 -17.307 -0.028 -17.355 -0.028 -17.406 -0.043 5.275 0.097 2.083 0.088 42.379 41.429
49.000 -16.616 -0.054 -16.670 -0.050 -17.309 -0.028 -17.357 -0.028 -17.407 -0.043 5.261 0.094 2.097 0.086 42.380 41.416
50.000 -16.612 -0.055 -16.666 -0.051 -17.311 -0.028 -17.359 -0.028 -17.408 -0.044 5.238 0.084 2.117 0.079 42.381 41.375
51.000 -16.607 -0.056 -16.662 -0.052 -17.313 -0.028 -17.362 -0.028 -17.408 -0.045 5.221 0.085 2.136 0.082 42.383 41.386
52.000 -16.602 -0.057 -16.658 -0.053 -17.314 -0.029 -17.364 -0.028 -17.409 -0.046 5.204 0.084 2.152 0.082 42.384 41.384
53.000 -16.598 -0.058 -16.654 -0.054 -17.316 -0.029 -17.365 -0.029 -17.410 -0.046 5.196 0.097 2.161 0.094 42.385 41.445
54.000 -16.593 -0.060 -16.649 -0.055 -17.317 -0.029 -17.367 -0.029 -17.410 -0.047 5.181 0.097 2.175 0.095 42.385 41.446
55.000 -16.588 -0.061 -16.645 -0.057 -17.317 -0.029 -17.368 -0.029 -17.410 -0.047 5.175 0.099 2.182 0.097 42.386 41.457
56.000 -16.582 -0.062 -16.640 -0.058 -17.317 -0.029 -17.368 -0.029 -17.410 -0.048 5.163 0.099 2.193 0.099 42.386 41.459
57.000 -16.576 -0.063 -16.634 -0.059 -17.317 -0.029 -17.368 -0.029 -17.409 -0.048 5.150 0.103 2.205 0.103 42.387 41.476
58.000 -16.570 -0.064 -16.628 -0.060 -17.315 -0.029 -17.367 -0.029 -17.408 -0.049 5.139 0.097 2.214 0.098 42.387 41.453
59.000 -16.563 -0.066 -16.622 -0.061 -17.313 -0.029 -17.365 -0.029 -17.407 -0.049 5.124 0.090 2.226 0.092 42.387 41.423
60.000 -16.555 -0.067 -16.614 -0.062 -17.310 -0.030 -17.362 -0.029 -17.405 -0.049 5.114 0.091 2.233 0.093 42.386 41.425
61.000 -16.547 -0.068 -16.606 -0.064 -17.307 -0.030 -17.359 -0.029 -17.403 -0.049 5.102 0.093 2.241 0.096 42.385 41.435
62.000 -16.538 -0.070 -16.597 -0.065 -17.302 -0.030 -17.355 -0.030 -17.400 -0.049 5.097 0.091 2.242 0.094 42.383 41.426
63.000 -16.527 -0.071 -16.587 -0.066 -17.296 -0.030 -17.350 -0.030 -17.397 -0.048 5.093 0.095 2.240 0.097 42.381 41.439
64.000 -16.516 -0.073 -16.577 -0.068 -17.290 -0.030 -17.343 -0.030 -17.393 -0.048 5.102 0.106 2.223 0.108 42.378 41.485
65.000 -16.504 -0.074 -16.565 -0.069 -17.282 -0.030 -17.336 -0.030 -17.388 -0.047 5.092 0.107 2.225 0.108 42.375 41.484
66.000 -16.492 -0.075 -16.552 -0.070 -17.273 -0.031 -17.328 -0.030 -17.383 -0.047 5.085 0.106 2.223 0.108 42.372 41.478
67.000 -16.478 -0.077 -16.539 -0.072 -17.263 -0.031 -17.318 -0.030 -17.377 -0.046 5.077 0.109 2.221 0.112 42.368 41.490
68.000 -16.463 -0.078 -16.524 -0.073 -17.252 -0.031 -17.308 -0.031 -17.370 -0.045 5.071 0.109 2.215 0.110 42.364 41.483
69.000 -16.447 -0.080 -16.508 -0.074 -17.240 -0.032 -17.296 -0.031 -17.363 -0.045 5.072 0.107 2.202 0.108 42.359 41.471
70.000 -16.430 -0.081 -16.491 -0.075 -17.226 -0.032 -17.283 -0.031 -17.355 -0.044 5.067 0.110 2.193 0.110 42.354 41.477
71.000 -16.412 -0.082 -16.473 -0.077 -17.212 -0.033 -17.270 -0.032 -17.346 -0.043 5.058 0.112 2.187 0.112 42.348 41.480
72.000 -16.393 -0.083 -16.454 -0.078 -17.196 -0.033 -17.255 -0.032 -17.336 -0.042 5.047 0.107 2.183 0.108 42.343 41.458
73.000 -16.373 -0.085 -16.434 -0.079 -17.179 -0.034 -17.238 -0.033 -17.326 -0.041 5.032 0.108 2.180 0.109 42.337 41.455
74.000 -16.352 -0.086 -16.414 -0.080 -17.161 -0.034 -17.221 -0.033 -17.315 -0.041 5.023 0.112 2.172 0.112 42.330 41.466
75.000 -16.330 -0.087 -16.392 -0.081 -17.142 -0.035 -17.203 -0.034 -17.303 -0.040 5.014 0.108 2.163 0.109 42.324 41.446
76.000 -16.308 -0.088 -16.369 -0.082 -17.122 -0.036 -17.183 -0.034 -17.291 -0.040 4.984 0.099 2.173 0.101 42.317 41.403
77.000 -16.284 -0.089 -16.345 -0.083 -17.100 -0.036 -17.163 -0.035 -17.277 -0.040 4.981 0.115 2.157 0.115 42.310 41.460
78.000 -16.260 -0.091 -16.321 -0.084 -17.078 -0.036 -17.141 -0.035 -17.263 -0.040 4.954 0.107 2.163 0.110 42.302 41.429
79.000 -16.235 -0.092 -16.296 -0.085 -17.055 -0.037 -17.119 -0.036 -17.248 -0.040 4.934 0.101 2.163 0.104 42.296 41.397
80.000 -16.209 -0.093 -16.270 -0.087 -17.030 -0.037 -17.095 -0.036 -17.233 -0.041 4.915 0.113 2.160 0.116 42.288 41.438
81.000 -16.183 -0.094 -16.243 -0.088 -17.005 -0.038 -17.071 -0.037 -17.216 -0.042 4.880 0.102 2.177 0.108 42.282 41.395
82.000 -16.156 -0.096 -16.216 -0.089 -16.979 -0.038 -17.046 -0.037 -17.199 -0.043 4.866 0.114 2.168 0.121 42.274 41.438
83.000 -16.128 -0.098 -16.188 -0.091 -16.952 -0.039 -17.020 -0.038 -17.181 -0.045 4.837 0.120 2.176 0.129 42.266 41.455
84.000 -16.100 -0.100 -16.160 -0.093 -16.924 -0.039 -16.993 -0.038 -17.163 -0.048 4.810 0.121 2.181 0.132 42.259 41.455
85.000 -16.072 -0.103 -16.131 -0.095 -16.896 -0.040 -16.965 -0.039 -17.144 -0.051 4.782 0.124 2.187 0.138 42.251 41.464
86.000 -16.043 -0.105 -16.102 -0.098 -16.866 -0.041 -16.936 -0.040 -17.124 -0.054 4.760 0.129 2.184 0.145 42.242 41.476
87.000 -16.014 -0.109 -16.073 -0.101 -16.836 -0.042 -16.907 -0.041 -17.103 -0.058 4.735 0.139 2.187 0.158 42.234 41.504
88.000 -15.985 -0.113 -16.044 -0.105 -16.806 -0.044 -16.877 -0.043 -17.082 -0.063 4.715 0.144 2.182 0.165 42.225 41.514
89.000 -15.956 -0.117 -16.014 -0.109 -16.775 -0.046 -16.847 -0.046 -17.060 -0.068 4.703 0.151 2.166 0.173 42.214 41.526
90.000 -15.927 -0.123 -15.984 -0.114 -16.743 -0.050 -16.816 -0.049 -17.037 -0.075 4.683 0.166 2.160 0.193 42.204 41.562
91.000 -15.898 -0.129 -15.954 -0.120 -16.711 -0.054 -16.785 -0.053 -17.014 -0.081 4.674 0.177 2.141 0.204 42.193 41.580
92.000 -15.868 -0.135 -15.925 -0.127 -16.679 -0.059 -16.753 -0.058 -16.990 -0.089 4.663 0.182 2.120 0.207 42.180 41.578
93.000 -15.840 -0.143 -15.895 -0.134 -16.646 -0.065 -16.720 -0.064 -16.965 -0.097 4.651 0.191 2.106 0.220 42.170 41.594
94.000 -15.811 -0.151 -15.866 -0.143 -16.613 -0.072 -16.688 -0.071 -16.940 -0.106 4.658 0.209 2.068 0.237 42.157 41.620
