"Time (MJD)" "Temp./1e3 (K)" "Temp. Err." "Radius/1e15 (cm)" "Radius Err." "Log10(Bol. Lum)" "Log10(Bol. Err)"
-2.044 12.070 0.093 1.000 0.000 43.180 41.669
-1.044 20.069 2.464 0.525 0.058 43.503 42.936
-0.044 23.940 3.155 0.456 0.051 43.687 43.171
0.956 18.695 1.474 0.576 0.043 43.460 42.686
1.956 23.194 2.181 0.482 0.039 43.681 43.016
2.956 19.368 1.297 0.571 0.035 43.515 42.677
3.956 17.090 0.931 0.637 0.035 43.392 42.433
4.956 24.070 1.999 0.456 0.031 43.696 42.986
5.956 29.146 2.893 0.395 0.030 43.904 43.293
6.956 22.625 1.525 0.490 0.028 43.651 42.842
7.956 23.332 1.577 0.478 0.027 43.684 42.878
8.956 25.906 1.954 0.436 0.026 43.786 43.043
9.956 29.478 2.501 0.397 0.026 43.928 43.249
10.956 23.752 1.462 0.475 0.024 43.709 42.867
11.956 26.049 1.749 0.443 0.024 43.809 43.015
12.956 25.995 1.709 0.444 0.023 43.807 43.005
13.956 21.614 1.059 0.520 0.022 43.624 42.670
14.956 23.152 1.195 0.492 0.021 43.696 42.773
15.956 20.696 0.895 0.546 0.021 43.591 42.575
16.956 21.840 0.988 0.523 0.021 43.646 42.658
17.956 21.273 0.919 0.536 0.020 43.622 42.610
18.956 19.359 0.706 0.585 0.020 43.535 42.434
19.956 20.212 0.757 0.564 0.019 43.578 42.495
20.956 18.798 0.626 0.606 0.019 43.514 42.368
21.956 19.414 0.660 0.590 0.018 43.546 42.414
22.956 18.889 0.614 0.606 0.018 43.523 42.366
23.956 17.895 0.521 0.639 0.018 43.475 42.261
24.956 18.435 0.544 0.623 0.017 43.504 42.301
25.956 17.489 0.473 0.658 0.017 43.460 42.209
26.956 17.883 0.489 0.645 0.017 43.482 42.239
27.956 17.581 0.466 0.657 0.017 43.468 42.209
28.956 16.995 0.417 0.680 0.016 43.439 42.140
29.956 17.377 0.429 0.667 0.016 43.461 42.168
30.956 16.769 0.389 0.693 0.016 43.432 42.105
31.956 17.047 0.397 0.683 0.016 43.448 42.126
32.956 16.859 0.385 0.691 0.016 43.439 42.106
33.956 16.474 0.354 0.708 0.015 43.420 42.057
34.956 16.767 0.362 0.697 0.015 43.437 42.078
35.956 16.356 0.337 0.716 0.015 43.417 42.034
36.956 16.565 0.342 0.708 0.015 43.429 42.049
37.956 16.444 0.335 0.714 0.015 43.424 42.035
38.956 16.169 0.313 0.727 0.014 43.410 41.998
39.956 16.405 0.318 0.717 0.014 43.424 42.014
40.956 16.118 0.302 0.731 0.014 43.410 41.982
41.956 16.283 0.305 0.725 0.014 43.420 41.993
42.956 16.206 0.301 0.728 0.014 43.416 41.984
43.956 15.994 0.285 0.739 0.013 43.406 41.954
44.956 16.103 0.285 0.734 0.013 43.412 41.958
45.956 15.886 0.273 0.746 0.013 43.402 41.932
46.956 16.021 0.275 0.740 0.013 43.410 41.941
47.956 15.978 0.272 0.742 0.013 43.408 41.936
48.956 15.809 0.260 0.751 0.013 43.399 41.910
49.956 15.814 0.256 0.750 0.012 43.400 41.903
50.956 15.648 0.248 0.760 0.012 43.392 41.883
51.956 15.763 0.249 0.754 0.012 43.399 41.890
52.956 15.745 0.248 0.755 0.012 43.398 41.888
53.956 15.608 0.238 0.763 0.012 43.391 41.866
54.956 15.526 0.232 0.766 0.012 43.386 41.850
55.956 15.401 0.226 0.774 0.012 43.380 41.834
56.956 15.504 0.227 0.769 0.012 43.386 41.840
57.956 15.506 0.227 0.769 0.012 43.386 41.840
58.956 15.390 0.219 0.775 0.011 43.381 41.821
59.956 15.234 0.211 0.783 0.011 43.371 41.796
60.956 15.158 0.207 0.787 0.011 43.368 41.786
61.956 15.253 0.208 0.783 0.011 43.373 41.792
62.956 15.271 0.208 0.782 0.011 43.374 41.793
63.956 15.170 0.201 0.787 0.011 43.369 41.776
64.956 14.952 0.192 0.798 0.011 43.356 41.744
65.956 14.916 0.190 0.800 0.011 43.354 41.738
66.956 14.992 0.190 0.797 0.011 43.359 41.742
67.956 15.021 0.191 0.795 0.011 43.360 41.745
68.956 14.931 0.185 0.800 0.011 43.356 41.729
69.956 14.665 0.176 0.814 0.010 43.339 41.691
70.956 14.661 0.175 0.814 0.010 43.339 41.689
71.956 14.563 0.171 0.819 0.010 43.333 41.672
72.956 14.600 0.171 0.817 0.010 43.335 41.676
73.956 14.522 0.167 0.822 0.010 43.331 41.662
74.956 14.252 0.158 0.837 0.010 43.314 41.623
75.956 14.269 0.157 0.836 0.010 43.315 41.623
76.956 13.985 0.149 0.852 0.010 43.297 41.583
77.956 14.025 0.150 0.849 0.010 43.298 41.587
78.956 13.967 0.146 0.853 0.010 43.295 41.575
79.956 13.715 0.139 0.869 0.010 43.280 41.537
80.956 13.740 0.138 0.867 0.010 43.281 41.537
81.956 13.771 0.138 0.865 0.010 43.282 41.539
82.956 13.313 0.127 0.894 0.010 43.253 41.474
83.956 13.353 0.128 0.891 0.010 43.254 41.479
84.956 13.352 0.126 0.891 0.010 43.254 41.474
85.956 13.126 0.120 0.906 0.010 43.240 41.438
86.956 13.139 0.119 0.905 0.009 43.241 41.436
87.956 13.177 0.120 0.902 0.009 43.242 41.440
88.956 12.771 0.111 0.931 0.009 43.216 41.380
89.956 12.809 0.111 0.927 0.009 43.217 41.384
90.956 12.854 0.111 0.923 0.009 43.219 41.385
91.956 12.598 0.105 0.943 0.009 43.203 41.344
0.003 12.602 0.104 0.942 0.009 43.203 41.342
1.003 12.639 0.104 0.938 0.009 43.204 41.345
2.003 12.280 0.097 0.967 0.009 43.180 41.289
3.003 12.315 0.098 0.963 0.009 43.182 41.294
4.003 12.397 0.098 0.955 0.009 43.186 41.300
5.003 12.124 0.092 0.978 0.009 43.168 41.254
6.003 12.134 0.092 0.977 0.009 43.168 41.253
7.003 12.169 0.092 0.973 0.009 43.170 41.257
8.003 11.850 0.086 1.000 0.009 43.148 41.205
9.003 11.866 0.086 0.998 0.009 43.149 41.207
10.003 11.975 0.087 0.986 0.009 43.154 41.217
11.003 11.731 0.082 1.009 0.009 43.138 41.175
12.003 11.744 0.082 1.007 0.009 43.138 41.174
13.003 11.779 0.082 1.003 0.009 43.140 41.178
14.003 11.491 0.077 1.030 0.009 43.120 41.129
15.003 11.506 0.077 1.028 0.009 43.121 41.131
16.003 11.603 0.078 1.016 0.009 43.125 41.141
17.003 11.387 0.074 1.038 0.009 43.111 41.102
18.003 11.403 0.074 1.036 0.008 43.111 41.102
19.003 11.437 0.074 1.031 0.008 43.113 41.106
20.003 11.175 0.070 1.058 0.009 43.095 41.060
21.003 11.188 0.070 1.056 0.008 43.095 41.061
22.003 11.276 0.070 1.044 0.008 43.099 41.070
23.003 11.082 0.067 1.065 0.008 43.086 41.034
24.003 11.100 0.067 1.062 0.008 43.087 41.034
25.003 11.134 0.067 1.058 0.008 43.088 41.039
26.003 10.892 0.064 1.084 0.008 43.071 40.995
27.003 10.904 0.064 1.082 0.008 43.071 40.996
28.003 10.984 0.064 1.071 0.008 43.075 41.005
29.003 10.809 0.061 1.090 0.008 43.063 40.970
30.003 10.828 0.061 1.088 0.008 43.064 40.971
31.003 10.861 0.062 1.082 0.008 43.065 40.976
32.003 10.638 0.058 1.108 0.008 43.049 40.934
33.003 10.648 0.058 1.106 0.008 43.050 40.935
34.003 10.721 0.059 1.096 0.008 43.053 40.943
35.003 10.563 0.056 1.115 0.008 43.042 40.911
36.003 10.583 0.056 1.111 0.008 43.043 40.912
37.003 10.616 0.057 1.106 0.008 43.044 40.917
38.003 10.407 0.054 1.131 0.008 43.029 40.876
39.003 10.417 0.054 1.130 0.008 43.030 40.878
40.003 10.483 0.054 1.119 0.008 43.032 40.885
41.003 10.339 0.052 1.137 0.008 43.022 40.855
42.003 10.360 0.052 1.134 0.008 43.023 40.857
43.003 10.392 0.052 1.128 0.008 43.024 40.861
44.003 10.196 0.050 1.153 0.008 43.011 40.822
45.003 10.205 0.050 1.152 0.008 43.011 40.824
46.003 10.266 0.050 1.141 0.008 43.013 40.831
47.003 10.134 0.048 1.159 0.008 43.004 40.802
48.003 10.155 0.048 1.155 0.008 43.005 40.804
49.003 10.187 0.049 1.149 0.008 43.006 40.809
50.003 10.002 0.047 1.174 0.008 42.993 40.771
51.003 10.011 0.047 1.173 0.008 42.993 40.772
52.003 10.068 0.047 1.162 0.008 42.995 40.779
53.003 9.945 0.045 1.180 0.008 42.987 40.752
54.003 9.967 0.045 1.176 0.007 42.988 40.754
55.003 9.999 0.045 1.169 0.007 42.989 40.759
56.003 9.830 0.044 1.193 0.007 42.977 40.723
57.003 9.838 0.044 1.192 0.007 42.977 40.725
58.003 9.899 0.044 1.180 0.007 42.979 40.732
59.003 9.785 0.042 1.197 0.007 42.971 40.706
60.003 9.807 0.042 1.193 0.007 42.972 40.709
61.003 9.838 0.043 1.186 0.007 42.973 40.714
62.003 9.682 0.041 1.209 0.007 42.962 40.680
63.003 9.690 0.041 1.207 0.007 42.962 40.681
64.003 9.754 0.041 1.195 0.007 42.964 40.690
65.003 9.647 0.040 1.211 0.007 42.957 40.665
66.003 9.669 0.040 1.207 0.007 42.958 40.667
67.003 9.699 0.040 1.200 0.007 42.958 40.672
68.003 9.551 0.039 1.223 0.007 42.948 40.640
69.003 9.558 0.039 1.221 0.007 42.948 40.641
70.003 9.626 0.039 1.208 0.007 42.950 40.650
71.003 9.531 0.038 1.223 0.007 42.944 40.628
72.003 9.552 0.038 1.218 0.007 42.945 40.630
73.003 9.582 0.038 1.211 0.007 42.945 40.635
74.003 9.440 0.037 1.234 0.007 42.935 40.604
75.003 9.447 0.037 1.232 0.007 42.935 40.605
76.003 9.517 0.037 1.217 0.007 42.938 40.615
77.003 9.432 0.036 1.231 0.007 42.932 40.594
78.003 9.453 0.036 1.227 0.007 42.933 40.597
79.003 9.482 0.037 1.220 0.007 42.933 40.602
80.003 9.346 0.035 1.242 0.007 42.923 40.571
81.003 9.352 0.035 1.240 0.007 42.923 40.572
82.003 9.423 0.036 1.225 0.007 42.926 40.582
83.003 9.347 0.035 1.238 0.007 42.921 40.563
84.003 9.367 0.035 1.233 0.007 42.921 40.566
85.003 9.396 0.035 1.226 0.007 42.922 40.571
86.003 9.264 0.034 1.248 0.007 42.912 40.540
87.003 9.270 0.034 1.246 0.007 42.912 40.542
88.003 9.332 0.034 1.233 0.007 42.915 40.551
89.003 9.263 0.034 1.245 0.007 42.910 40.533
90.003 9.282 0.034 1.240 0.007 42.911 40.536
91.003 9.311 0.034 1.233 0.007 42.911 40.541
92.003 9.183 0.033 1.255 0.007 42.902 40.511
13.919 9.189 0.033 1.253 0.007 42.902 40.512
14.919 9.243 0.033 1.241 0.007 42.904 40.520
15.919 9.180 0.032 1.252 0.007 42.899 40.504
16.919 9.199 0.032 1.248 0.007 42.900 40.506
17.919 9.228 0.033 1.240 0.006 42.900 40.511
18.919 9.104 0.031 1.262 0.007 42.891 40.482
19.919 9.109 0.032 1.260 0.007 42.891 40.483
20.919 9.156 0.032 1.249 0.006 42.893 40.490
21.919 9.099 0.031 1.259 0.006 42.889 40.475
22.919 9.118 0.031 1.255 0.006 42.890 40.478
23.919 9.146 0.031 1.248 0.006 42.890 40.483
24.919 9.025 0.030 1.269 0.006 42.881 40.454
25.919 9.031 0.030 1.267 0.006 42.881 40.455
26.919 9.072 0.030 1.258 0.006 42.883 40.461
27.919 9.019 0.030 1.267 0.006 42.879 40.447
28.919 9.037 0.030 1.263 0.006 42.880 40.450
29.919 9.063 0.030 1.256 0.006 42.880 40.454
30.919 8.947 0.029 1.277 0.006 42.872 40.427
31.919 8.952 0.029 1.275 0.006 42.872 40.428
32.919 8.988 0.029 1.266 0.006 42.873 40.433
33.919 8.939 0.029 1.275 0.006 42.869 40.420
34.919 8.958 0.029 1.271 0.006 42.870 40.422
35.919 8.982 0.029 1.265 0.006 42.870 40.427
36.919 8.875 0.028 1.284 0.006 42.863 40.401
37.919 8.881 0.028 1.282 0.006 42.863 40.402
38.919 8.915 0.028 1.274 0.006 42.864 40.407
39.919 8.868 0.028 1.283 0.006 42.860 40.394
40.919 8.887 0.028 1.278 0.006 42.861 40.397
41.919 8.909 0.028 1.272 0.006 42.861 40.401
42.919 8.811 0.027 1.290 0.006 42.854 40.377
43.919 8.816 0.027 1.288 0.006 42.854 40.378
44.919 8.849 0.027 1.280 0.006 42.855 40.383
45.919 8.799 0.027 1.290 0.006 42.852 40.370
46.919 8.817 0.027 1.285 0.006 42.852 40.372
47.919 8.838 0.027 1.279 0.006 42.852 40.376
48.919 8.748 0.027 1.296 0.006 42.846 40.354
49.919 8.753 0.027 1.295 0.006 42.846 40.355
50.919 8.785 0.027 1.287 0.006 42.847 40.360
51.919 8.731 0.026 1.297 0.006 42.843 40.345
52.919 8.749 0.026 1.293 0.006 42.844 40.348
53.919 8.769 0.026 1.287 0.006 42.844 40.352
54.919 8.686 0.026 1.303 0.006 42.838 40.331
55.919 8.691 0.026 1.301 0.006 42.838 40.332
56.919 8.721 0.026 1.293 0.006 42.839 40.337
57.919 8.666 0.025 1.304 0.006 42.835 40.322
58.919 8.684 0.025 1.300 0.006 42.835 40.325
59.919 8.702 0.026 1.294 0.006 42.835 40.328
60.919 8.625 0.025 1.309 0.006 42.830 40.309
61.919 8.630 0.025 1.308 0.006 42.830 40.310
62.919 8.661 0.025 1.300 0.006 42.831 40.315
63.919 8.612 0.025 1.309 0.006 42.827 40.301
64.919 8.630 0.025 1.305 0.006 42.828 40.304
65.919 8.645 0.025 1.300 0.006 42.828 40.307
66.919 8.566 0.024 1.316 0.006 42.822 40.287
67.919 8.571 0.024 1.314 0.006 42.822 40.288
68.919 8.617 0.024 1.302 0.006 42.823 40.296
69.919 8.572 0.024 1.311 0.006 42.820 40.283
70.919 8.590 0.024 1.306 0.006 42.821 40.286
71.919 8.602 0.024 1.302 0.006 42.821 40.288
72.919 8.522 0.024 1.319 0.006 42.815 40.268
73.919 8.527 0.024 1.317 0.006 42.815 40.269
74.919 8.586 0.024 1.301 0.006 42.817 40.279
75.919 8.540 0.024 1.310 0.006 42.813 40.267
76.919 8.557 0.024 1.306 0.006 42.814 40.270
77.919 8.568 0.024 1.302 0.006 42.814 40.272
78.919 8.486 0.023 1.319 0.006 42.808 40.251
79.919 8.491 0.023 1.317 0.006 42.808 40.252
80.919 8.547 0.023 1.302 0.006 42.809 40.262
-2.041 8.501 0.023 1.311 0.006 42.806 40.249
-1.041 8.518 0.023 1.307 0.006 42.807 40.252
-0.041 8.527 0.023 1.304 0.006 42.807 40.254
0.959 8.444 0.023 1.321 0.006 42.801 40.233
1.959 8.449 0.023 1.319 0.006 42.801 40.234
2.959 8.503 0.023 1.305 0.006 42.802 40.243
3.959 8.456 0.023 1.314 0.006 42.799 40.231
4.959 8.473 0.023 1.310 0.005 42.799 40.233
5.959 8.480 0.023 1.307 0.005 42.799 40.235
6.959 8.397 0.022 1.324 0.006 42.793 40.214
7.959 8.401 0.022 1.323 0.006 42.793 40.215
8.959 8.453 0.022 1.309 0.005 42.794 40.224
9.959 8.406 0.022 1.318 0.005 42.791 40.211
10.959 8.423 0.022 1.314 0.005 42.792 40.214
11.959 8.429 0.022 1.312 0.005 42.792 40.215
12.959 8.345 0.022 1.329 0.005 42.786 40.194
13.959 8.350 0.022 1.328 0.005 42.786 40.195
14.959 8.398 0.022 1.314 0.005 42.787 40.204
15.959 8.353 0.021 1.324 0.005 42.784 40.191
16.959 8.369 0.021 1.319 0.005 42.784 40.194
17.959 8.374 0.021 1.317 0.005 42.784 40.195
18.959 8.290 0.021 1.335 0.005 42.778 40.174
19.959 8.294 0.021 1.334 0.005 42.778 40.175
20.959 8.341 0.021 1.320 0.005 42.779 40.183
21.959 8.295 0.021 1.330 0.005 42.776 40.171
22.959 8.311 0.021 1.326 0.005 42.776 40.173
23.959 8.316 0.021 1.324 0.005 42.776 40.174
24.959 8.233 0.020 1.342 0.005 42.770 40.154
25.959 8.237 0.020 1.340 0.005 42.770 40.154
26.959 8.281 0.021 1.327 0.005 42.771 40.162
27.959 8.235 0.020 1.337 0.005 42.768 40.150
28.959 8.251 0.020 1.333 0.005 42.768 40.153
29.959 8.257 0.020 1.331 0.005 42.768 40.154
30.959 8.174 0.020 1.349 0.005 42.762 40.133
31.959 8.178 0.020 1.347 0.005 42.762 40.134
32.959 8.220 0.020 1.335 0.005 42.763 40.141
33.959 8.174 0.020 1.345 0.005 42.760 40.129
34.959 8.189 0.020 1.340 0.005 42.760 40.131
35.959 8.196 0.020 1.338 0.005 42.760 40.133
36.959 8.113 0.019 1.356 0.005 42.754 40.112
37.959 8.117 0.019 1.355 0.005 42.754 40.113
38.959 8.157 0.020 1.343 0.005 42.755 40.120
39.959 8.111 0.019 1.353 0.005 42.752 40.108
40.959 8.126 0.019 1.348 0.005 42.752 40.110
41.959 8.134 0.019 1.346 0.005 42.752 40.112
42.959 8.051 0.019 1.364 0.005 42.746 40.091
43.959 8.055 0.019 1.363 0.005 42.746 40.092
44.959 8.093 0.019 1.351 0.005 42.747 40.099
45.959 8.048 0.019 1.361 0.005 42.744 40.087
46.959 8.063 0.019 1.357 0.005 42.744 40.089
47.959 8.071 0.019 1.354 0.005 42.744 40.090
48.959 7.989 0.018 1.373 0.005 42.738 40.070
49.959 7.992 0.018 1.371 0.005 42.738 40.071
50.959 8.028 0.019 1.360 0.005 42.738 40.077
51.959 7.986 0.018 1.370 0.005 42.736 40.066
52.959 8.000 0.018 1.366 0.005 42.736 40.068
53.959 8.009 0.018 1.362 0.005 42.736 40.070
54.959 7.927 0.018 1.381 0.005 42.730 40.049
55.959 7.931 0.018 1.380 0.005 42.730 40.050
56.959 7.965 0.018 1.369 0.005 42.730 40.056
57.959 7.925 0.018 1.378 0.005 42.728 40.045
58.959 7.939 0.018 1.374 0.005 42.728 40.048
59.959 7.948 0.018 1.371 0.005 42.728 40.049
60.959 7.867 0.018 1.390 0.005 42.722 40.029
61.959 7.870 0.018 1.388 0.005 42.722 40.030
62.959 7.903 0.018 1.378 0.005 42.722 40.036
63.959 7.865 0.017 1.387 0.005 42.720 40.025
64.959 7.879 0.018 1.383 0.005 42.720 40.028
65.959 7.887 0.018 1.379 0.005 42.720 40.029
66.959 7.807 0.017 1.399 0.005 42.714 40.009
67.959 7.810 0.017 1.397 0.005 42.714 40.010
68.959 7.841 0.017 1.387 0.005 42.714 40.015
69.959 7.806 0.017 1.395 0.005 42.712 40.006
70.959 7.819 0.017 1.391 0.005 42.712 40.008
71.959 7.828 0.017 1.387 0.005 42.712 40.009
72.959 7.748 0.017 1.407 0.005 42.706 39.990
73.959 7.751 0.017 1.406 0.005 42.706 39.990
74.959 7.781 0.017 1.396 0.005 42.706 39.995
75.959 7.747 0.017 1.404 0.005 42.704 39.986
76.959 7.761 0.017 1.400 0.005 42.704 39.989
77.959 7.769 0.017 1.396 0.005 42.704 39.990
78.959 7.690 0.016 1.416 0.005 42.699 39.970
79.959 7.693 0.016 1.415 0.005 42.699 39.971
80.959 7.721 0.017 1.405 0.005 42.699 39.976
81.959 7.690 0.016 1.413 0.005 42.697 39.967
82.959 7.703 0.016 1.408 0.005 42.697 39.970
83.959 7.712 0.016 1.405 0.005 42.697 39.971
84.959 7.640 0.016 1.423 0.005 42.692 39.953
85.959 7.643 0.016 1.422 0.005 42.691 39.953
86.959 7.670 0.016 1.412 0.005 42.692 39.959
87.959 7.641 0.016 1.420 0.005 42.690 39.950
88.959 7.654 0.016 1.415 0.005 42.690 39.953
89.959 7.663 0.016 1.411 0.005 42.689 39.954
90.959 7.597 0.016 1.428 0.005 42.685 39.938
91.959 7.600 0.016 1.427 0.005 42.685 39.938
92.959 7.626 0.016 1.417 0.005 42.685 39.943
93.959 7.599 0.016 1.424 0.005 42.683 39.935
94.959 7.612 0.016 1.420 0.005 42.683 39.937
95.959 7.621 0.016 1.416 0.005 42.683 39.939
96.959 7.560 0.016 1.432 0.005 42.679 39.924
97.959 7.563 0.016 1.431 0.005 42.679 39.924
98.959 7.589 0.016 1.421 0.005 42.679 39.929
99.959 7.564 0.016 1.428 0.005 42.677 39.922
100.959 7.576 0.016 1.423 0.005 42.677 39.924
101.959 7.585 0.016 1.419 0.005 42.677 39.925
102.959 7.530 0.015 1.434 0.005 42.673 39.911
103.959 7.532 0.015 1.433 0.005 42.673 39.912
104.959 7.558 0.015 1.423 0.005 42.673 39.916
105.959 7.534 0.015 1.430 0.005 42.671 39.909
106.959 7.546 0.015 1.425 0.005 42.672 39.912
107.959 7.555 0.015 1.421 0.005 42.671 39.913
108.959 7.503 0.015 1.435 0.005 42.668 39.900
109.959 7.506 0.015 1.434 0.005 42.667 39.900
110.959 7.531 0.015 1.424 0.005 42.667 39.905
111.959 7.507 0.015 1.431 0.005 42.666 39.898
112.959 7.519 0.015 1.427 0.005 42.666 39.900
113.959 7.527 0.015 1.423 0.005 42.666 39.901
114.959 7.479 0.015 1.436 0.005 42.663 39.889
115.959 7.482 0.015 1.434 0.005 42.662 39.890
116.959 7.507 0.015 1.425 0.005 42.662 39.894
117.959 7.483 0.015 1.432 0.005 42.661 39.888
118.959 7.494 0.015 1.427 0.005 42.661 39.890
119.959 7.501 0.015 1.424 0.005 42.660 39.891
120.959 7.456 0.015 1.437 0.005 42.657 39.879
121.959 7.458 0.015 1.435 0.005 42.657 39.879
122.959 7.486 0.015 1.425 0.005 42.657 39.884
123.959 7.461 0.015 1.431 0.005 42.656 39.878
124.959 7.473 0.015 1.427 0.005 42.656 39.880
125.959 7.479 0.015 1.424 0.005 42.655 39.881
126.959 7.428 0.015 1.438 0.005 42.652 39.868
127.959 7.431 0.015 1.437 0.005 42.652 39.868
128.959 7.472 0.015 1.421 0.005 42.652 39.876
129.959 7.447 0.015 1.428 0.005 42.650 39.869
130.959 7.459 0.015 1.424 0.005 42.650 39.871
131.959 7.465 0.015 1.421 0.005 42.650 39.872
132.959 7.408 0.014 1.436 0.005 42.646 39.858
133.959 7.411 0.015 1.435 0.005 42.646 39.858
134.959 7.468 0.015 1.413 0.005 42.646 39.868
135.959 7.444 0.015 1.420 0.005 42.644 39.862
136.959 7.455 0.015 1.416 0.005 42.645 39.864
137.959 7.462 0.015 1.412 0.005 42.644 39.865
-4.128 7.398 0.014 1.430 0.005 42.640 39.849
-3.128 7.400 0.014 1.428 0.005 42.640 39.849
-2.128 7.478 0.015 1.399 0.005 42.640 39.863
-1.128 7.454 0.015 1.406 0.005 42.638 39.857
-0.128 7.465 0.015 1.402 0.005 42.638 39.859
0.872 7.472 0.015 1.398 0.005 42.638 39.860
1.872 7.401 0.014 1.418 0.005 42.633 39.843
2.872 7.403 0.014 1.416 0.005 42.633 39.843
3.872 7.505 0.015 1.379 0.005 42.633 39.861
4.872 7.483 0.015 1.384 0.005 42.632 39.855
5.872 7.493 0.015 1.381 0.005 42.632 39.857
6.872 7.500 0.015 1.377 0.005 42.631 39.858
7.872 7.422 0.014 1.398 0.005 42.626 39.839
8.872 7.424 0.014 1.397 0.005 42.626 39.840
9.872 7.538 0.015 1.355 0.005 42.626 39.860
10.872 7.518 0.015 1.361 0.005 42.625 39.855
11.872 7.527 0.015 1.357 0.005 42.625 39.856
12.872 7.536 0.015 1.354 0.005 42.624 39.858
13.872 7.448 0.015 1.376 0.005 42.618 39.837
14.872 7.450 0.015 1.375 0.005 42.618 39.837
15.872 7.531 0.015 1.346 0.005 42.618 39.852
16.872 7.512 0.015 1.351 0.005 42.617 39.847
17.872 7.521 0.015 1.348 0.005 42.617 39.848
18.872 7.530 0.015 1.344 0.005 42.617 39.850
19.872 7.436 0.014 1.368 0.005 42.610 39.827
20.872 7.438 0.014 1.367 0.005 42.610 39.827
21.872 7.494 0.015 1.347 0.005 42.610 39.838
22.872 7.477 0.015 1.351 0.005 42.609 39.833
23.872 7.485 0.015 1.348 0.005 42.609 39.834
24.872 7.493 0.015 1.345 0.005 42.609 39.835
25.872 7.403 0.014 1.369 0.005 42.603 39.814
26.872 7.404 0.014 1.367 0.005 42.603 39.814
27.872 7.442 0.014 1.353 0.005 42.603 39.821
28.872 7.426 0.014 1.358 0.005 42.602 39.817
29.872 7.433 0.014 1.355 0.005 42.602 39.818
30.872 7.440 0.014 1.352 0.005 42.601 39.819
31.872 7.353 0.014 1.375 0.005 42.596 39.798
32.872 7.355 0.014 1.374 0.005 42.595 39.799
33.872 7.382 0.014 1.364 0.005 42.595 39.803
34.872 7.366 0.014 1.368 0.005 42.594 39.799
35.872 7.373 0.014 1.366 0.005 42.594 39.800
36.872 7.378 0.014 1.363 0.005 42.594 39.801
37.872 7.296 0.014 1.386 0.005 42.588 39.781
38.872 7.298 0.014 1.385 0.005 42.588 39.782
39.872 7.324 0.014 1.374 0.005 42.588 39.786
40.872 7.308 0.014 1.379 0.005 42.587 39.782
41.872 7.314 0.014 1.377 0.005 42.587 39.783
42.872 7.319 0.014 1.374 0.005 42.587 39.783
43.872 7.241 0.014 1.396 0.005 42.582 39.765
44.872 7.242 0.014 1.395 0.005 42.581 39.765
45.872 7.268 0.014 1.385 0.005 42.581 39.770
46.872 7.252 0.014 1.389 0.005 42.580 39.765
47.872 7.258 0.014 1.387 0.005 42.580 39.766
48.872 7.263 0.014 1.385 0.005 42.580 39.767
49.872 7.187 0.013 1.406 0.005 42.575 39.750
50.872 7.188 0.013 1.405 0.005 42.575 39.749
51.872 7.214 0.013 1.395 0.005 42.575 39.754
52.872 7.198 0.013 1.399 0.005 42.574 39.750
53.872 7.205 0.013 1.397 0.005 42.574 39.751
54.872 7.210 0.013 1.394 0.005 42.573 39.751
55.872 7.138 0.013 1.415 0.005 42.569 39.735
56.872 7.139 0.013 1.414 0.005 42.568 39.735
57.872 7.165 0.013 1.404 0.005 42.568 39.739
58.872 7.149 0.013 1.408 0.005 42.567 39.735
59.872 7.157 0.013 1.405 0.005 42.567 39.736
60.872 7.162 0.013 1.403 0.005 42.567 39.737
61.872 7.092 0.013 1.423 0.005 42.562 39.721
62.872 7.094 0.013 1.422 0.005 42.562 39.721
63.872 7.119 0.013 1.412 0.005 42.562 39.725
64.872 7.103 0.013 1.416 0.005 42.561 39.721
65.872 7.113 0.013 1.412 0.005 42.561 39.723
66.872 7.118 0.013 1.409 0.005 42.560 39.723
67.872 7.051 0.013 1.430 0.005 42.556 39.708
68.872 7.053 0.013 1.428 0.005 42.556 39.708
69.872 7.077 0.013 1.418 0.005 42.556 39.712
70.872 7.061 0.013 1.423 0.005 42.555 39.708
71.872 7.074 0.013 1.418 0.005 42.555 39.710
72.872 7.081 0.013 1.414 0.005 42.554 39.711
73.872 7.016 0.013 1.433 0.005 42.550 39.696
74.872 7.018 0.013 1.432 0.005 42.549 39.696
75.872 7.042 0.013 1.422 0.005 42.549 39.700
76.872 7.026 0.013 1.427 0.005 42.548 39.696
77.872 7.040 0.013 1.421 0.005 42.548 39.698
78.872 7.045 0.013 1.418 0.005 42.548 39.699
79.872 6.983 0.012 1.437 0.005 42.544 39.685
80.872 6.985 0.012 1.435 0.005 42.543 39.685
81.872 7.006 0.013 1.426 0.005 42.543 39.688
82.872 6.990 0.012 1.431 0.005 42.542 39.684
83.872 7.007 0.013 1.424 0.005 42.542 39.687
84.872 7.012 0.013 1.421 0.005 42.541 39.687
85.872 6.951 0.012 1.440 0.005 42.538 39.674
86.872 6.954 0.012 1.438 0.005 42.537 39.674
87.872 6.976 0.012 1.428 0.005 42.537 39.677
88.872 6.960 0.012 1.433 0.005 42.536 39.673
-4.071 6.965 0.012 1.430 0.005 42.535 39.674
-3.071 6.906 0.012 1.448 0.005 42.531 39.661
-2.071 6.909 0.012 1.446 0.005 42.531 39.661
-1.071 6.933 0.012 1.435 0.005 42.530 39.665
-0.071 6.917 0.012 1.440 0.005 42.529 39.661
0.929 6.922 0.012 1.437 0.005 42.529 39.661
1.929 6.865 0.012 1.456 0.005 42.525 39.649
2.929 6.867 0.012 1.453 0.005 42.525 39.649
3.929 6.893 0.012 1.441 0.005 42.524 39.653
4.929 6.877 0.012 1.447 0.005 42.523 39.649
5.929 6.882 0.012 1.444 0.005 42.523 39.649
6.929 6.826 0.012 1.462 0.005 42.519 39.637
7.929 6.828 0.012 1.460 0.005 42.519 39.637
8.929 6.856 0.012 1.447 0.005 42.518 39.641
9.929 6.840 0.012 1.452 0.005 42.517 39.637
10.929 6.845 0.012 1.449 0.005 42.517 39.638
11.929 6.788 0.012 1.468 0.005 42.513 39.626
12.929 6.790 0.012 1.466 0.005 42.512 39.626
13.929 6.820 0.012 1.452 0.005 42.512 39.630
14.929 6.803 0.012 1.457 0.005 42.511 39.626
15.929 6.808 0.012 1.454 0.005 42.510 39.626
16.929 6.750 0.012 1.474 0.005 42.507 39.615
17.929 6.753 0.012 1.471 0.005 42.506 39.615
18.929 6.784 0.012 1.456 0.005 42.505 39.619
19.929 6.768 0.012 1.462 0.005 42.505 39.615
20.929 6.775 0.012 1.458 0.005 42.504 39.616
21.929 6.716 0.012 1.478 0.005 42.500 39.604
22.929 6.718 0.012 1.475 0.005 42.499 39.604
23.929 6.751 0.012 1.459 0.005 42.499 39.608
24.929 6.736 0.012 1.465 0.005 42.498 39.605
25.929 6.743 0.012 1.460 0.005 42.497 39.605
26.929 6.683 0.012 1.481 0.005 42.494 39.594
27.929 6.685 0.012 1.478 0.005 42.493 39.594
28.929 6.720 0.012 1.461 0.005 42.492 39.598
29.929 6.706 0.012 1.466 0.005 42.491 39.595
30.929 6.712 0.012 1.462 0.005 42.490 39.595
31.929 6.651 0.011 1.483 0.005 42.487 39.584
32.929 6.653 0.011 1.481 0.005 42.486 39.583
33.929 6.691 0.012 1.463 0.005 42.485 39.588
34.929 6.696 0.012 1.459 0.005 42.484 39.588
35.929 6.632 0.011 1.481 0.005 42.481 39.577
36.929 6.635 0.011 1.479 0.005 42.480 39.576
37.929 6.674 0.012 1.460 0.005 42.479 39.581
38.929 6.679 0.012 1.456 0.005 42.478 39.581
39.929 6.614 0.011 1.479 0.005 42.475 39.569
40.929 6.616 0.011 1.476 0.005 42.474 39.569
41.929 6.657 0.012 1.456 0.005 42.473 39.574
42.929 6.662 0.012 1.453 0.005 42.472 39.574
43.929 6.595 0.011 1.476 0.005 42.468 39.562
44.929 6.598 0.011 1.474 0.005 42.467 39.561
45.929 6.641 0.012 1.453 0.005 42.466 39.566
46.929 6.643 0.012 1.450 0.005 42.465 39.566
47.929 6.646 0.012 1.447 0.005 42.464 39.565
48.929 6.649 0.012 1.444 0.005 42.463 39.565
49.929 6.651 0.012 1.440 0.005 42.461 39.565
50.929 6.654 0.012 1.437 0.005 42.460 39.564
51.929 6.658 0.012 1.433 0.005 42.459 39.564
52.929 6.661 0.012 1.429 0.005 42.457 39.563
53.929 6.664 0.012 1.426 0.005 42.456 39.563
54.929 6.668 0.012 1.422 0.005 42.454 39.562
55.929 6.671 0.012 1.418 0.005 42.453 39.562
56.929 6.675 0.012 1.413 0.005 42.451 39.562
57.929 6.679 0.012 1.409 0.005 42.450 39.561
58.929 6.684 0.012 1.404 0.005 42.448 39.561
59.929 6.688 0.012 1.400 0.005 42.446 39.561
60.929 6.693 0.012 1.395 0.005 42.444 39.560
61.929 6.697 0.012 1.390 0.005 42.443 39.560
62.929 6.702 0.013 1.385 0.005 42.441 39.560
63.929 6.708 0.013 1.380 0.005 42.439 39.560
64.929 6.713 0.013 1.374 0.005 42.437 39.560
65.929 6.719 0.013 1.369 0.005 42.435 39.559
66.929 6.725 0.013 1.363 0.005 42.433 39.559
67.929 6.731 0.013 1.357 0.005 42.430 39.559
68.929 6.738 0.013 1.351 0.005 42.428 39.559
69.929 6.745 0.013 1.345 0.005 42.426 39.559
70.929 6.752 0.013 1.338 0.005 42.424 39.559
71.929 6.759 0.013 1.332 0.005 42.421 39.559
72.929 6.767 0.013 1.325 0.005 42.419 39.560
73.929 6.776 0.014 1.318 0.005 42.416 39.560
74.929 6.784 0.014 1.311 0.005 42.414 39.560
75.929 6.793 0.014 1.304 0.005 42.411 39.561
76.929 6.803 0.014 1.296 0.005 42.409 39.561
77.929 6.813 0.014 1.288 0.005 42.406 39.562
78.929 6.824 0.014 1.280 0.005 42.403 39.563
79.929 6.835 0.014 1.272 0.005 42.401 39.564
80.929 6.846 0.014 1.263 0.005 42.398 39.565
81.929 6.859 0.015 1.255 0.005 42.395 39.566
82.929 6.872 0.015 1.245 0.005 42.392 39.567
83.929 6.886 0.015 1.236 0.005 42.389 39.569
84.929 6.900 0.015 1.227 0.005 42.386 39.570
85.929 6.916 0.015 1.217 0.005 42.383 39.572
86.929 6.932 0.016 1.207 0.005 42.379 39.574
87.929 6.949 0.016 1.196 0.005 42.376 39.577
88.929 6.968 0.016 1.185 0.005 42.373 39.579
89.929 6.988 0.016 1.174 0.005 42.370 39.582
90.929 7.009 0.016 1.163 0.005 42.366 39.586
91.929 7.031 0.017 1.151 0.005 42.363 39.589
