"Time (MJD)" "Temp./1e3 (K)" "Temp. Err." "Radius/1e15 (cm)" "Radius Err." "Bol. Lum" "Bol. Err"
0.000 8.891 0.052 0.462 0.004 41.978 39.804
1.006 7.483 0.034 0.667 0.005 41.997 39.577
2.013 7.459 0.032 0.673 0.005 41.999 39.545
3.019 7.149 0.030 0.726 0.006 41.991 39.475
4.025 7.825 0.035 0.630 0.005 42.025 39.603
5.031 7.790 0.031 0.671 0.005 42.073 39.604
6.038 7.706 0.029 0.683 0.004 42.068 39.566
7.044 7.569 0.027 0.704 0.004 42.064 39.527
8.050 7.425 0.025 0.726 0.004 42.058 39.488
9.056 7.174 0.023 0.762 0.005 42.040 39.427
10.062 6.942 0.021 0.799 0.005 42.024 39.381
11.069 6.745 0.020 0.832 0.005 42.009 39.350
12.075 6.673 0.019 0.837 0.005 41.995 39.332
13.081 6.250 0.016 0.955 0.005 41.997 39.339
14.088 6.067 0.015 1.029 0.006 42.009 39.366
15.094 6.236 0.016 0.990 0.005 42.023 39.370
16.100 6.203 0.016 0.945 0.005 41.974 39.327
17.106 5.595 0.013 1.181 0.006 41.989 39.401
18.113 5.612 0.013 1.150 0.006 41.971 39.384
19.119 5.611 0.012 1.138 0.006 41.961 39.376
20.125 5.586 0.012 1.131 0.006 41.948 39.367
21.131 5.515 0.011 1.147 0.006 41.938 39.364
22.138 5.471 0.011 1.169 0.006 41.941 39.374
23.144 5.427 0.011 1.192 0.006 41.944 39.385
24.150 5.384 0.011 1.215 0.006 41.946 39.394
25.156 5.344 0.011 1.232 0.006 41.946 39.401
26.163 5.297 0.011 1.247 0.006 41.941 39.405
27.169 5.253 0.011 1.260 0.006 41.935 39.408
28.175 5.209 0.011 1.272 0.007 41.929 39.411
29.181 5.160 0.011 1.298 0.007 41.930 39.420
30.188 4.983 0.010 1.395 0.007 41.932 39.447
31.194 4.929 0.010 1.414 0.008 41.925 39.449
32.200 4.899 0.010 1.420 0.008 41.918 39.447
33.206 4.905 0.010 1.412 0.007 41.915 39.440
34.213 4.911 0.010 1.403 0.007 41.912 39.433
35.219 4.893 0.010 1.410 0.007 41.910 39.430
36.225 4.773 0.009 1.494 0.008 41.917 39.452
37.231 4.661 0.009 1.582 0.008 41.925 39.474
38.238 4.573 0.008 1.659 0.008 41.934 39.490
39.244 4.544 0.008 1.680 0.008 41.933 39.490
40.250 4.469 0.008 1.722 0.009 41.926 39.495
41.256 4.470 0.008 1.716 0.009 41.923 39.490
42.263 4.473 0.008 1.707 0.009 41.920 39.483
43.269 4.478 0.008 1.686 0.009 41.911 39.473
44.275 4.492 0.008 1.665 0.008 41.906 39.463
45.281 4.519 0.008 1.651 0.008 41.909 39.458
46.288 4.531 0.008 1.630 0.008 41.902 39.442
47.294 4.504 0.008 1.650 0.008 41.902 39.441
48.300 4.418 0.008 1.730 0.008 41.910 39.460
49.306 4.385 0.007 1.739 0.008 41.901 39.451
50.313 4.470 0.008 1.654 0.008 41.891 39.425
51.319 4.440 0.008 1.676 0.008 41.891 39.426
52.325 4.379 0.007 1.741 0.008 41.900 39.441
53.331 4.317 0.007 1.809 0.009 41.909 39.455
54.338 4.286 0.007 1.848 0.009 41.915 39.461
55.344 4.343 0.007 1.788 0.008 41.909 39.440
56.350 4.384 0.007 1.744 0.008 41.904 39.421
57.356 4.360 0.007 1.751 0.008 41.898 39.413
58.363 4.324 0.007 1.763 0.008 41.889 39.407
59.369 4.286 0.007 1.777 0.008 41.881 39.401
60.375 4.251 0.007 1.789 0.008 41.872 39.394
61.381 4.208 0.006 1.811 0.008 41.865 39.390
62.388 4.381 0.007 1.643 0.007 41.850 39.346
63.394 4.527 0.007 1.458 0.006 41.804 39.258
64.400 4.405 0.007 1.626 0.007 41.851 39.321
65.406 4.425 0.007 1.578 0.007 41.833 39.295
66.413 4.546 0.007 1.485 0.006 41.827 39.272
67.419 4.526 0.007 1.464 0.006 41.807 39.249
68.425 4.448 0.007 1.534 0.006 41.817 39.264
69.431 4.423 0.007 1.547 0.006 41.815 39.268
70.438 4.417 0.007 1.591 0.007 41.837 39.291
71.444 4.400 0.007 1.583 0.007 41.826 39.279
72.450 4.448 0.007 1.478 0.006 41.785 39.227
73.456 4.455 0.007 1.465 0.006 41.780 39.221
74.463 4.405 0.007 1.508 0.006 41.786 39.238
75.469 4.473 0.007 1.446 0.006 41.776 39.219
76.475 4.504 0.007 1.413 0.006 41.768 39.207
77.481 4.523 0.007 1.345 0.006 41.732 39.172
78.488 4.513 0.007 1.363 0.006 41.739 39.178
79.494 4.528 0.007 1.343 0.006 41.732 39.173
80.500 5.727 0.061 0.731 0.015 41.613 39.504
81.506 4.370 0.008 1.378 0.006 41.693 39.179
82.513 4.346 0.008 1.402 0.007 41.699 39.191
83.519 4.335 0.008 1.406 0.007 41.697 39.195
84.525 4.346 0.008 1.376 0.007 41.683 39.185
85.531 4.357 0.008 1.347 0.007 41.669 39.176
86.538 4.368 0.008 1.319 0.007 41.655 39.168
87.544 4.379 0.008 1.292 0.007 41.641 39.160
88.550 4.389 0.008 1.265 0.007 41.627 39.153
89.556 4.399 0.009 1.238 0.007 41.612 39.145
90.563 4.410 0.009 1.205 0.007 41.593 39.134
91.569 4.420 0.009 1.174 0.006 41.574 39.123
92.575 4.444 0.009 1.134 0.006 41.553 39.108
93.581 4.431 0.010 1.119 0.006 41.537 39.103
94.588 4.360 0.010 1.144 0.007 41.528 39.118
95.594 4.294 0.009 1.161 0.007 41.514 39.126
96.600 4.235 0.009 1.166 0.007 41.494 39.124
97.606 4.193 0.009 1.155 0.007 41.468 39.115
98.613 4.187 0.010 1.112 0.007 41.432 39.092
99.619 4.146 0.010 1.086 0.007 41.395 39.074
100.625 4.073 0.010 1.077 0.007 41.357 39.061
101.631 4.002 0.010 1.069 0.008 41.320 39.049
102.638 3.908 0.010 1.085 0.008 41.292 39.067
103.644 3.731 0.009 1.170 0.009 41.276 39.097
104.650 3.665 0.009 1.139 0.009 41.222 39.066
105.656 3.736 0.010 1.014 0.009 41.154 39.002
106.663 3.692 0.010 0.965 0.008 41.090 38.959
107.669 3.644 0.010 0.950 0.009 41.054 38.955
108.675 3.635 0.011 0.925 0.009 41.027 38.951
109.681 3.617 0.011 0.905 0.009 41.000 38.943
110.688 3.599 0.012 0.886 0.009 40.973 38.935
111.694 3.579 0.012 0.868 0.010 40.945 38.927
112.700 3.571 0.012 0.861 0.010 40.934 38.932
113.706 3.568 0.013 0.860 0.010 40.931 38.944
114.713 3.565 0.013 0.858 0.010 40.928 38.955
115.719 3.563 0.013 0.857 0.011 40.926 38.966
116.725 3.560 0.014 0.855 0.011 40.923 38.977
117.731 3.557 0.014 0.854 0.011 40.920 38.988
118.738 3.554 0.014 0.853 0.012 40.917 38.998
119.744 3.551 0.015 0.851 0.012 40.914 39.009
120.750 3.548 0.015 0.850 0.012 40.912 39.019
121.756 3.544 0.016 0.849 0.013 40.909 39.029
122.763 3.541 0.016 0.848 0.013 40.906 39.039
123.769 3.538 0.017 0.847 0.013 40.903 39.049
124.775 3.534 0.017 0.845 0.014 40.900 39.059
125.781 3.531 0.017 0.844 0.014 40.897 39.068
126.788 3.298 0.026 1.103 0.034 41.011 39.496
127.794 3.298 0.027 1.094 0.034 41.004 39.502
128.800 3.297 0.027 1.085 0.035 40.996 39.507
129.806 3.297 0.028 1.076 0.036 40.989 39.512
130.812 3.296 0.029 1.067 0.037 40.982 39.517
131.819 3.296 0.030 1.059 0.037 40.974 39.522
132.825 3.295 0.031 1.050 0.038 40.967 39.527
133.831 3.295 0.031 1.041 0.039 40.959 39.532
134.838 3.294 0.032 1.032 0.040 40.952 39.536
135.844 3.294 0.033 1.024 0.040 40.944 39.541
136.850 3.293 0.034 1.015 0.041 40.937 39.545
137.856 3.293 0.035 1.007 0.042 40.929 39.549
138.863 3.293 0.036 0.998 0.043 40.922 39.553
139.869 3.292 0.037 0.990 0.043 40.914 39.557
140.875 3.295 0.038 0.983 0.044 40.909 39.562
141.881 3.299 0.039 0.976 0.045 40.906 39.567
142.888 3.303 0.040 0.970 0.045 40.902 39.573
143.894 3.307 0.041 0.964 0.046 40.899 39.578
144.900 3.311 0.041 0.958 0.047 40.896 39.583
145.906 3.316 0.042 0.952 0.047 40.892 39.588
146.913 3.320 0.043 0.946 0.048 40.889 39.593
147.919 3.324 0.044 0.940 0.049 40.886 39.598
148.925 3.328 0.045 0.935 0.049 40.883 39.603
149.931 3.331 0.046 0.929 0.050 40.879 39.608
150.938 3.335 0.047 0.924 0.051 40.876 39.612
151.944 3.339 0.048 0.918 0.051 40.873 39.617
152.950 3.343 0.049 0.913 0.052 40.870 39.622
153.956 3.347 0.050 0.907 0.053 40.867 39.626
154.963 3.351 0.051 0.902 0.053 40.863 39.630
155.969 3.354 0.052 0.896 0.054 40.860 39.635
156.975 3.358 0.053 0.891 0.055 40.857 39.639
157.981 3.362 0.055 0.886 0.055 40.854 39.643
158.988 3.365 0.056 0.881 0.056 40.851 39.647
159.994 3.369 0.057 0.876 0.057 40.848 39.651
161.000 3.373 0.058 0.871 0.057 40.844 39.655
